Unit Serial No : SM245-KSP200281-EU
Integration Time : 100 ms
Time Average: 10
Binning Average: 0
FFT Smoothing: 0%
Project Name : Project Name
Sample Name : 0068
Measurement No : 1
Measurement Time : 12/09/2022   15:26:09

Wavelength(nm)	Wavenumber(1/cm)	Intensity(Counts)
133.0000      	75187.9699    	2691.50000    
134.0000      	74626.8657    	2708.89990    
135.0000      	74074.0741    	2694.60010    
136.0000      	73529.4118    	2701.00000    
137.0000      	72992.7007    	2721.30005    
138.0000      	72463.7681    	2684.10010    
139.0000      	71942.4460    	2697.80005    
140.0000      	71428.5714    	2684.19995    
141.0000      	70921.9858    	2685.00000    
142.0000      	70422.5352    	2684.89990    
143.0000      	69930.0699    	2695.50000    
144.0000      	69444.4444    	2694.39990    
145.0000      	68965.5172    	2716.50000    
146.0000      	68493.1507    	2690.80005    
147.0000      	68027.2109    	2695.00000    
148.0000      	67567.5676    	2719.10010    
149.0000      	67114.0940    	2698.19995    
150.0000      	66666.6667    	2697.69995    
151.0000      	66225.1656    	2687.00000    
152.0000      	65789.4737    	2684.10010    
153.0000      	65359.4771    	2717.00000    
154.0000      	64935.0649    	2711.10010    
155.0000      	64516.1290    	2699.30005    
156.0000      	64102.5641    	2705.10010    
157.0000      	63694.2675    	2701.50000    
158.0000      	63291.1392    	2694.30005    
159.0000      	62893.0818    	2703.19995    
160.0000      	62500.0000    	2709.69995    
161.0000      	62111.8012    	2694.00000    
162.0000      	61728.3951    	2692.39990    
163.0000      	61349.6933    	2690.69995    
164.0000      	60975.6098    	2682.80005    
165.0000      	60606.0606    	2694.50000    
166.0000      	60240.9639    	2680.10010    
167.0000      	59880.2395    	2697.50000    
168.0000      	59523.8095    	2685.19995    
169.0000      	59171.5976    	2688.30005    
170.0000      	58823.5294    	2681.50000    
171.0000      	58479.5322    	2689.39990    
172.0000      	58139.5349    	2701.60010    
173.0000      	57803.4682    	2675.19995    
174.0000      	57471.2644    	2691.00000    
175.0000      	57142.8571    	2666.39990    
176.0000      	56818.1818    	2703.00000    
177.0000      	56497.1751    	2782.39990    
178.0000      	56179.7753    	2685.39990    
179.0000      	55865.9218    	2685.30005    
180.0000      	55555.5556    	2690.89990    
181.0000      	55248.6188    	2696.89990    
182.0000      	54945.0549    	2676.00000    
183.0000      	54644.8087    	2703.69995    
184.0000      	54347.8261    	2693.60010    
185.0000      	54054.0541    	2691.60010    
186.0000      	53763.4409    	2683.60010    
187.0000      	53475.9358    	2702.50000    
188.0000      	53191.4894    	2671.60010    
189.0000      	52910.0529    	2667.60010    
190.0000      	52631.5789    	2690.00000    
191.0000      	52356.0209    	2715.30005    
192.0000      	52083.3333    	2766.60010    
193.0000      	51813.4715    	2682.60010    
194.0000      	51546.3918    	2744.10010    
195.0000      	51282.0513    	2699.10010    
196.0000      	51020.4082    	2679.00000    
197.0000      	50761.4213    	2685.19995    
198.0000      	50505.0505    	2684.80005    
199.0000      	50251.2563    	2689.69995    
200.0000      	50000.0000    	2702.19995    
201.0000      	49751.2438    	2697.30005    
202.0000      	49504.9505    	2687.50000    
203.0000      	49261.0837    	2671.50000    
204.0000      	49019.6078    	2657.00000    
205.0000      	48780.4878    	2694.89990    
206.0000      	48543.6893    	2673.80005    
207.0000      	48309.1787    	2684.19995    
208.0000      	48076.9231    	2685.60010    
209.0000      	47846.8900    	2666.39990    
210.0000      	47619.0476    	2691.89990    
211.0000      	47393.3649    	2706.50000    
212.0000      	47169.8113    	2710.00000    
213.0000      	46948.3568    	2714.10010    
214.0000      	46728.9720    	2769.60010    
215.0000      	46511.6279    	2700.69995    
216.0000      	46296.2963    	2688.50000    
217.0000      	46082.9493    	2702.69995    
218.0000      	45871.5596    	2691.10010    
219.0000      	45662.1005    	2667.50000    
220.0000      	45454.5455    	2689.10010    
221.0000      	45248.8688    	2707.69995    
222.0000      	45045.0450    	2700.00000    
223.0000      	44843.0493    	2713.00000    
224.0000      	44642.8571    	2660.50000    
225.0000      	44444.4444    	2668.30005    
226.0000      	44247.7876    	2685.10010    
227.0000      	44052.8634    	2697.89990    
228.0000      	43859.6491    	2680.80005    
229.0000      	43668.1223    	2708.89990    
230.0000      	43478.2609    	2704.60010    
231.0000      	43290.0433    	2689.19995    
232.0000      	43103.4483    	2712.00000    
233.0000      	42918.4549    	2683.69995    
234.0000      	42735.0427    	2693.50000    
235.0000      	42553.1915    	2690.50000    
236.0000      	42372.8814    	2688.10010    
237.0000      	42194.0928    	2691.50000    
238.0000      	42016.8067    	2737.89990    
239.0000      	41841.0042    	2686.10010    
240.0000      	41666.6667    	2703.30005    
241.0000      	41493.7759    	2694.89990    
242.0000      	41322.3140    	2742.60010    
243.0000      	41152.2634    	2716.50000    
244.0000      	40983.6066    	2694.60010    
245.0000      	40816.3265    	2674.60010    
246.0000      	40650.4065    	2678.19995    
247.0000      	40485.8300    	2685.50000    
248.0000      	40322.5806    	2685.60010    
249.0000      	40160.6426    	2695.00000    
250.0000      	40000.0000    	2672.00000    
251.0000      	39840.6375    	2688.30005    
252.0000      	39682.5397    	2683.80005    
253.0000      	39525.6917    	2741.60010    
254.0000      	39370.0787    	2689.19995    
255.0000      	39215.6863    	2689.39990    
256.0000      	39062.5000    	2688.19995    
257.0000      	38910.5058    	2701.39990    
258.0000      	38759.6899    	2684.80005    
259.0000      	38610.0386    	2678.00000    
260.0000      	38461.5385    	2728.19995    
261.0000      	38314.1762    	2685.69995    
262.0000      	38167.9389    	2676.69995    
263.0000      	38022.8137    	2693.50000    
264.0000      	37878.7879    	2696.00000    
265.0000      	37735.8491    	2686.50000    
266.0000      	37593.9850    	2688.19995    
267.0000      	37453.1835    	2680.60010    
268.0000      	37313.4328    	2693.19995    
269.0000      	37174.7212    	2708.50000    
270.0000      	37037.0370    	2692.30005    
271.0000      	36900.3690    	2688.80005    
272.0000      	36764.7059    	2700.50000    
273.0000      	36630.0366    	2684.80005    
274.0000      	36496.3504    	2697.50000    
275.0000      	36363.6364    	2678.89990    
276.0000      	36231.8841    	2697.00000    
277.0000      	36101.0830    	2695.80005    
278.0000      	35971.2230    	2693.00000    
279.0000      	35842.2939    	2695.60010    
280.0000      	35714.2857    	2704.30005    
281.0000      	35587.1886    	2670.60010    
282.0000      	35460.9929    	2695.89990    
283.0000      	35335.6890    	2698.69995    
284.0000      	35211.2676    	2677.80005    
285.0000      	35087.7193    	2670.69995    
286.0000      	34965.0350    	2674.89990    
287.0000      	34843.2056    	2681.50000    
288.0000      	34722.2222    	2694.89990    
289.0000      	34602.0761    	2686.80005    
290.0000      	34482.7586    	2717.50000    
291.0000      	34364.2612    	2695.89990    
292.0000      	34246.5753    	2710.39990    
293.0000      	34129.6928    	2692.19995    
294.0000      	34013.6054    	2695.89990    
295.0000      	33898.3051    	2684.89990    
296.0000      	33783.7838    	2688.00000    
297.0000      	33670.0337    	2736.50000    
298.0000      	33557.0470    	2696.69995    
299.0000      	33444.8161    	2674.00000    
300.0000      	33333.3333    	2683.00000    
301.0000      	33222.5914    	2725.89990    
302.0000      	33112.5828    	2702.50000    
303.0000      	33003.3003    	2689.89990    
304.0000      	32894.7368    	2689.39990    
305.0000      	32786.8852    	2676.80005    
306.0000      	32679.7386    	2688.39990    
307.0000      	32573.2899    	2696.10010    
308.0000      	32467.5325    	2705.80005    
309.0000      	32362.4595    	2696.10010    
310.0000      	32258.0645    	2688.50000    
311.0000      	32154.3408    	2712.10010    
312.0000      	32051.2821    	2669.69995    
313.0000      	31948.8818    	2699.00000    
314.0000      	31847.1338    	2709.19995    
315.0000      	31746.0317    	2674.60010    
316.0000      	31645.5696    	2669.50000    
317.0000      	31545.7413    	2680.39990    
318.0000      	31446.5409    	2710.89990    
319.0000      	31347.9624    	2674.89990    
320.0000      	31250.0000    	2725.80005    
321.0000      	31152.6480    	2695.39990    
322.0000      	31055.9006    	2699.30005    
323.0000      	30959.7523    	2682.69995    
324.0000      	30864.1975    	2739.69995    
325.0000      	30769.2308    	2682.10010    
326.0000      	30674.8466    	2694.10010    
327.0000      	30581.0398    	2683.69995    
328.0000      	30487.8049    	2701.80005    
329.0000      	30395.1368    	2690.50000    
330.0000      	30303.0303    	2705.80005    
331.0000      	30211.4804    	2673.50000    
332.0000      	30120.4819    	2700.39990    
333.0000      	30030.0300    	2735.19995    
334.0000      	29940.1198    	2681.80005    
335.0000      	29850.7463    	2691.30005    
336.0000      	29761.9048    	2702.10010    
337.0000      	29673.5905    	2679.30005    
338.0000      	29585.7988    	2681.89990    
339.0000      	29498.5251    	2675.80005    
340.0000      	29411.7647    	2710.30005    
341.0000      	29325.5132    	2684.60010    
342.0000      	29239.7661    	2685.39990    
343.0000      	29154.5190    	2704.10010    
344.0000      	29069.7674    	2712.00000    
345.0000      	28985.5072    	2705.19995    
346.0000      	28901.7341    	2673.00000    
347.0000      	28818.4438    	2692.50000    
348.0000      	28735.6322    	2707.80005    
349.0000      	28653.2951    	2721.39990    
350.0000      	28571.4286    	2686.10010    
351.0000      	28490.0285    	2718.00000    
352.0000      	28409.0909    	2831.89990    
353.0000      	28328.6119    	2817.50000    
354.0000      	28248.5876    	2696.30005    
355.0000      	28169.0141    	2705.19995    
356.0000      	28089.8876    	2681.50000    
357.0000      	28011.2045    	2712.30005    
358.0000      	27932.9609    	2711.00000    
359.0000      	27855.1532    	2721.19995    
360.0000      	27777.7778    	3110.39990    
361.0000      	27700.8310    	2763.89990    
362.0000      	27624.3094    	2742.69995    
363.0000      	27548.2094    	2705.30005    
364.0000      	27472.5275    	2808.10010    
365.0000      	27397.2603    	2713.60010    
366.0000      	27322.4044    	2698.19995    
367.0000      	27247.9564    	2679.10010    
368.0000      	27173.9130    	2688.60010    
369.0000      	27100.2710    	2799.60010    
370.0000      	27027.0270    	2765.39990    
371.0000      	26954.1779    	2888.89990    
372.0000      	26881.7204    	2728.60010    
373.0000      	26809.6515    	2697.89990    
374.0000      	26737.9679    	2734.19995    
375.0000      	26666.6667    	2694.10010    
376.0000      	26595.7447    	2719.39990    
377.0000      	26525.1989    	2677.69995    
378.0000      	26455.0265    	2674.69995    
379.0000      	26385.2243    	2704.80005    
380.0000      	26315.7895    	2677.50000    
381.0000      	26246.7192    	2710.50000    
382.0000      	26178.0105    	2789.39990    
383.0000      	26109.6606    	3055.80005    
384.0000      	26041.6667    	2716.19995    
385.0000      	25974.0260    	2691.50000    
386.0000      	25906.7358    	2700.69995    
387.0000      	25839.7933    	2800.50000    
388.0000      	25773.1959    	2827.19995    
389.0000      	25706.9409    	3875.69995    
390.0000      	25641.0256    	4508.20020    
391.0000      	25575.4476    	2764.80005    
392.0000      	25510.2041    	2694.39990    
393.0000      	25445.2926    	2711.89990    
394.0000      	25380.7107    	2702.50000    
395.0000      	25316.4557    	2707.80005    
396.0000      	25252.5253    	2696.00000    
397.0000      	25188.9169    	3207.50000    
398.0000      	25125.6281    	2757.39990    
399.0000      	25062.6566    	2679.00000    
400.0000      	25000.0000    	2725.19995    
401.0000      	24937.6559    	2743.80005    
402.0000      	24875.6219    	2751.19995    
403.0000      	24813.8958    	4777.00000    
404.0000      	24752.4752    	3108.50000    
405.0000      	24691.3580    	2725.60010    
406.0000      	24630.5419    	2787.30005    
407.0000      	24570.0246    	2709.80005    
408.0000      	24509.8039    	2688.39990    
409.0000      	24449.8778    	2716.00000    
410.0000      	24390.2439    	2706.30005    
411.0000      	24330.9002    	2716.50000    
412.0000      	24271.8447    	2780.60010    
413.0000      	24213.0751    	3595.69995    
414.0000      	24154.5894    	2708.89990    
415.0000      	24096.3855    	2928.39990    
416.0000      	24038.4615    	2726.80005    
417.0000      	23980.8153    	2747.30005    
418.0000      	23923.4450    	2765.00000    
419.0000      	23866.3484    	2729.10010    
420.0000      	23809.5238    	2728.00000    
421.0000      	23752.9691    	2722.69995    
422.0000      	23696.6825    	2722.89990    
423.0000      	23640.6619    	2710.50000    
424.0000      	23584.9057    	2745.00000    
425.0000      	23529.4118    	2784.19995    
426.0000      	23474.1784    	2721.19995    
427.0000      	23419.2037    	2778.89990    
428.0000      	23364.4860    	2914.50000    
429.0000      	23310.0233    	2782.80005    
430.0000      	23255.8140    	2776.19995    
431.0000      	23201.8561    	2801.10010    
432.0000      	23148.1481    	2798.00000    
433.0000      	23094.6882    	2813.69995    
434.0000      	23041.4747    	2893.60010    
435.0000      	22988.5057    	2879.30005    
436.0000      	22935.7798    	2960.10010    
437.0000      	22883.2952    	3250.89990    
438.0000      	22831.0502    	2902.50000    
439.0000      	22779.0433    	3076.10010    
440.0000      	22727.2727    	3354.10010    
441.0000      	22675.7370    	2980.30005    
442.0000      	22624.4344    	3031.50000    
443.0000      	22573.3634    	3382.19995    
444.0000      	22522.5225    	3447.69995    
445.0000      	22471.9101    	3162.39990    
446.0000      	22421.5247    	3200.19995    
447.0000      	22371.3647    	3572.50000    
448.0000      	22321.4286    	19840.00000   
449.0000      	22271.7149    	3369.80005    
450.0000      	22222.2222    	3166.69995    
451.0000      	22172.9490    	3091.19995    
452.0000      	22123.8938    	3082.69995    
453.0000      	22075.0552    	3035.39990    
454.0000      	22026.4317    	3297.19995    
455.0000      	21978.0220    	3143.19995    
456.0000      	21929.8246    	2977.10010    
457.0000      	21881.8381    	2979.10010    
458.0000      	21834.0611    	3108.89990    
459.0000      	21786.4924    	3094.50000    
460.0000      	21739.1304    	2939.10010    
461.0000      	21691.9740    	2914.19995    
462.0000      	21645.0216    	2988.50000    
463.0000      	21598.2721    	2912.39990    
464.0000      	21551.7241    	2918.50000    
465.0000      	21505.3763    	2979.60010    
466.0000      	21459.2275    	2907.19995    
467.0000      	21413.2762    	2919.50000    
468.0000      	21367.5214    	2879.60010    
469.0000      	21321.9616    	2951.89990    
470.0000      	21276.5957    	2895.19995    
471.0000      	21231.4225    	3801.39990    
472.0000      	21186.4407    	12729.29980   
473.0000      	21141.6490    	3892.19995    
474.0000      	21097.0464    	2826.89990    
475.0000      	21052.6316    	2851.19995    
476.0000      	21008.4034    	3617.60010    
477.0000      	20964.3606    	2815.00000    
478.0000      	20920.5021    	2803.50000    
479.0000      	20876.8267    	2856.39990    
480.0000      	20833.3333    	3032.80005    
481.0000      	20790.0208    	2856.19995    
482.0000      	20746.8880    	3198.60010    
483.0000      	20703.9337    	3207.60010    
484.0000      	20661.1570    	2955.39990    
485.0000      	20618.5567    	3291.00000    
486.0000      	20576.1317    	2941.10010    
487.0000      	20533.8809    	3683.60010    
488.0000      	20491.8033    	2888.00000    
489.0000      	20449.8978    	3407.89990    
490.0000      	20408.1633    	2974.39990    
491.0000      	20366.5988    	2862.80005    
492.0000      	20325.2033    	2929.39990    
493.0000      	20283.9757    	7798.29980    
494.0000      	20242.9150    	3008.80005    
495.0000      	20202.0202    	2883.39990    
496.0000      	20161.2903    	2868.50000    
497.0000      	20120.7243    	2999.00000    
498.0000      	20080.3213    	2883.60010    
499.0000      	20040.0802    	2850.50000    
500.0000      	20000.0000    	3041.19995    
501.0000      	19960.0798    	3061.10010    
502.0000      	19920.3187    	6247.79980    
503.0000      	19880.7157    	3478.80005    
504.0000      	19841.2698    	4194.70020    
505.0000      	19801.9802    	4271.50000    
506.0000      	19762.8458    	4276.50000    
507.0000      	19723.8659    	2868.19995    
508.0000      	19685.0394    	3186.10010    
509.0000      	19646.3654    	5727.79980    
510.0000      	19607.8431    	2914.30005    
511.0000      	19569.4716    	2878.39990    
512.0000      	19531.2500    	2925.89990    
513.0000      	19493.1774    	3475.89990    
514.0000      	19455.2529    	2857.60010    
515.0000      	19417.4757    	3901.89990    
516.0000      	19379.8450    	4033.30005    
517.0000      	19342.3598    	2978.60010    
518.0000      	19305.0193    	2877.80005    
519.0000      	19267.8227    	3014.10010    
520.0000      	19230.7692    	4479.60010    
521.0000      	19193.8580    	3730.60010    
522.0000      	19157.0881    	3911.89990    
523.0000      	19120.4589    	3400.19995    
524.0000      	19083.9695    	3068.50000    
525.0000      	19047.6190    	2939.69995    
526.0000      	19011.4068    	2868.89990    
527.0000      	18975.3321    	2890.50000    
528.0000      	18939.3939    	2936.60010    
529.0000      	18903.5917    	2902.39990    
530.0000      	18867.9245    	2898.39990    
531.0000      	18832.3917    	3190.39990    
532.0000      	18796.9925    	2929.80005    
533.0000      	18761.7261    	3083.89990    
534.0000      	18726.5918    	8349.00000    
535.0000      	18691.5888    	9597.59961    
536.0000      	18656.7164    	3132.50000    
537.0000      	18621.9739    	3292.39990    
538.0000      	18587.3606    	3176.60010    
539.0000      	18552.8757    	2952.50000    
540.0000      	18518.5185    	2924.39990    
541.0000      	18484.2884    	3438.60010    
542.0000      	18450.1845    	3143.00000    
543.0000      	18416.2063    	3411.89990    
544.0000      	18382.3529    	3478.00000    
545.0000      	18348.6239    	3274.69995    
546.0000      	18315.0183    	3227.19995    
547.0000      	18281.5356    	3152.60010    
548.0000      	18248.1752    	2943.10010    
549.0000      	18214.9362    	2928.50000    
550.0000      	18181.8182    	2991.89990    
551.0000      	18148.8203    	2924.89990    
552.0000      	18115.9420    	2892.10010    
553.0000      	18083.1826    	2893.10010    
554.0000      	18050.5415    	2883.89990    
555.0000      	18018.0180    	2853.89990    
556.0000      	17985.6115    	2829.89990    
557.0000      	17953.3214    	2894.69995    
558.0000      	17921.1470    	2820.69995    
559.0000      	17889.0877    	2848.50000    
560.0000      	17857.1429    	2807.69995    
561.0000      	17825.3119    	2825.00000    
562.0000      	17793.5943    	2821.39990    
563.0000      	17761.9893    	2828.89990    
564.0000      	17730.4965    	2817.30005    
565.0000      	17699.1150    	2816.60010    
566.0000      	17667.8445    	2800.10010    
567.0000      	17636.6843    	2805.19995    
568.0000      	17605.6338    	2834.80005    
569.0000      	17574.6924    	2807.10010    
570.0000      	17543.8596    	2815.30005    
