Unit Serial No : SM245-KSP200281-EU
Integration Time : 100 ms
Time Average: 10
Binning Average: 0
FFT Smoothing: 0%
Project Name : Project Name
Sample Name : 0068
Measurement No : 1
Measurement Time : 12/09/2022   15:34:46

Wavelength(nm)	Wavenumber(1/cm)	Intensity(Counts)
133.0000      	75187.9699    	2611.50000    
134.0000      	74626.8657    	2614.00000    
135.0000      	74074.0741    	2582.69995    
136.0000      	73529.4118    	2612.00000    
137.0000      	72992.7007    	2613.89990    
138.0000      	72463.7681    	2604.69995    
139.0000      	71942.4460    	2627.19995    
140.0000      	71428.5714    	2592.80005    
141.0000      	70921.9858    	2595.30005    
142.0000      	70422.5352    	2642.89990    
143.0000      	69930.0699    	2610.19995    
144.0000      	69444.4444    	2622.10010    
145.0000      	68965.5172    	2626.39990    
146.0000      	68493.1507    	2594.50000    
147.0000      	68027.2109    	2621.80005    
148.0000      	67567.5676    	2625.00000    
149.0000      	67114.0940    	2604.30005    
150.0000      	66666.6667    	2609.00000    
151.0000      	66225.1656    	2622.80005    
152.0000      	65789.4737    	2601.50000    
153.0000      	65359.4771    	2626.60010    
154.0000      	64935.0649    	2625.89990    
155.0000      	64516.1290    	2598.69995    
156.0000      	64102.5641    	2591.80005    
157.0000      	63694.2675    	2605.60010    
158.0000      	63291.1392    	2600.10010    
159.0000      	62893.0818    	2621.69995    
160.0000      	62500.0000    	2617.30005    
161.0000      	62111.8012    	2604.60010    
162.0000      	61728.3951    	2613.10010    
163.0000      	61349.6933    	2589.80005    
164.0000      	60975.6098    	2615.50000    
165.0000      	60606.0606    	2609.80005    
166.0000      	60240.9639    	2628.10010    
167.0000      	59880.2395    	2592.00000    
168.0000      	59523.8095    	2613.80005    
169.0000      	59171.5976    	2602.80005    
170.0000      	58823.5294    	2602.19995    
171.0000      	58479.5322    	2617.19995    
172.0000      	58139.5349    	2620.60010    
173.0000      	57803.4682    	2620.10010    
174.0000      	57471.2644    	2614.00000    
175.0000      	57142.8571    	2608.30005    
176.0000      	56818.1818    	2606.39990    
177.0000      	56497.1751    	2731.00000    
178.0000      	56179.7753    	2601.50000    
179.0000      	55865.9218    	2627.10010    
180.0000      	55555.5556    	2594.00000    
181.0000      	55248.6188    	2601.69995    
182.0000      	54945.0549    	2604.69995    
183.0000      	54644.8087    	2600.39990    
184.0000      	54347.8261    	2613.19995    
185.0000      	54054.0541    	2607.00000    
186.0000      	53763.4409    	2603.39990    
187.0000      	53475.9358    	2600.30005    
188.0000      	53191.4894    	2610.19995    
189.0000      	52910.0529    	2594.19995    
190.0000      	52631.5789    	2587.69995    
191.0000      	52356.0209    	2594.50000    
192.0000      	52083.3333    	2703.89990    
193.0000      	51813.4715    	2614.50000    
194.0000      	51546.3918    	2663.30005    
195.0000      	51282.0513    	2621.69995    
196.0000      	51020.4082    	2607.89990    
197.0000      	50761.4213    	2598.50000    
198.0000      	50505.0505    	2609.30005    
199.0000      	50251.2563    	2610.80005    
200.0000      	50000.0000    	2591.19995    
201.0000      	49751.2438    	2615.39990    
202.0000      	49504.9505    	2618.50000    
203.0000      	49261.0837    	2618.00000    
204.0000      	49019.6078    	2592.00000    
205.0000      	48780.4878    	2610.39990    
206.0000      	48543.6893    	2606.00000    
207.0000      	48309.1787    	2614.60010    
208.0000      	48076.9231    	2608.00000    
209.0000      	47846.8900    	2618.50000    
210.0000      	47619.0476    	2596.30005    
211.0000      	47393.3649    	2593.69995    
212.0000      	47169.8113    	2594.30005    
213.0000      	46948.3568    	2633.60010    
214.0000      	46728.9720    	2677.30005    
215.0000      	46511.6279    	2602.00000    
216.0000      	46296.2963    	2647.80005    
217.0000      	46082.9493    	2620.89990    
218.0000      	45871.5596    	2610.30005    
219.0000      	45662.1005    	2606.69995    
220.0000      	45454.5455    	2606.00000    
221.0000      	45248.8688    	2654.19995    
222.0000      	45045.0450    	2606.80005    
223.0000      	44843.0493    	2624.50000    
224.0000      	44642.8571    	2595.30005    
225.0000      	44444.4444    	2639.80005    
226.0000      	44247.7876    	2590.69995    
227.0000      	44052.8634    	2593.30005    
228.0000      	43859.6491    	2603.89990    
229.0000      	43668.1223    	2599.19995    
230.0000      	43478.2609    	2644.89990    
231.0000      	43290.0433    	2581.89990    
232.0000      	43103.4483    	2633.30005    
233.0000      	42918.4549    	2593.30005    
234.0000      	42735.0427    	2623.00000    
235.0000      	42553.1915    	2620.00000    
236.0000      	42372.8814    	2609.19995    
237.0000      	42194.0928    	2576.00000    
238.0000      	42016.8067    	2651.60010    
239.0000      	41841.0042    	2618.39990    
240.0000      	41666.6667    	2597.19995    
241.0000      	41493.7759    	2622.00000    
242.0000      	41322.3140    	2653.69995    
243.0000      	41152.2634    	2617.80005    
244.0000      	40983.6066    	2607.50000    
245.0000      	40816.3265    	2632.39990    
246.0000      	40650.4065    	2618.89990    
247.0000      	40485.8300    	2616.00000    
248.0000      	40322.5806    	2594.89990    
249.0000      	40160.6426    	2633.50000    
250.0000      	40000.0000    	2643.19995    
251.0000      	39840.6375    	2603.39990    
252.0000      	39682.5397    	2604.60010    
253.0000      	39525.6917    	2653.30005    
254.0000      	39370.0787    	2605.89990    
255.0000      	39215.6863    	2597.69995    
256.0000      	39062.5000    	2607.89990    
257.0000      	38910.5058    	2619.39990    
258.0000      	38759.6899    	2623.89990    
259.0000      	38610.0386    	2632.60010    
260.0000      	38461.5385    	2604.89990    
261.0000      	38314.1762    	2608.00000    
262.0000      	38167.9389    	2591.69995    
263.0000      	38022.8137    	2608.19995    
264.0000      	37878.7879    	2626.69995    
265.0000      	37735.8491    	2620.60010    
266.0000      	37593.9850    	2611.00000    
267.0000      	37453.1835    	2621.69995    
268.0000      	37313.4328    	2605.69995    
269.0000      	37174.7212    	2626.30005    
270.0000      	37037.0370    	2600.19995    
271.0000      	36900.3690    	2618.39990    
272.0000      	36764.7059    	2604.10010    
273.0000      	36630.0366    	2613.89990    
274.0000      	36496.3504    	2616.19995    
275.0000      	36363.6364    	2612.69995    
276.0000      	36231.8841    	2619.30005    
277.0000      	36101.0830    	2619.00000    
278.0000      	35971.2230    	2600.30005    
279.0000      	35842.2939    	2610.00000    
280.0000      	35714.2857    	2617.69995    
281.0000      	35587.1886    	2604.00000    
282.0000      	35460.9929    	2606.60010    
283.0000      	35335.6890    	2601.39990    
284.0000      	35211.2676    	2601.30005    
285.0000      	35087.7193    	2580.50000    
286.0000      	34965.0350    	2588.00000    
287.0000      	34843.2056    	2597.69995    
288.0000      	34722.2222    	2601.69995    
289.0000      	34602.0761    	2589.19995    
290.0000      	34482.7586    	2614.60010    
291.0000      	34364.2612    	2593.50000    
292.0000      	34246.5753    	2604.69995    
293.0000      	34129.6928    	2607.30005    
294.0000      	34013.6054    	2622.30005    
295.0000      	33898.3051    	2602.80005    
296.0000      	33783.7838    	2616.19995    
297.0000      	33670.0337    	2653.89990    
298.0000      	33557.0470    	2586.80005    
299.0000      	33444.8161    	2601.50000    
300.0000      	33333.3333    	2631.19995    
301.0000      	33222.5914    	2608.10010    
302.0000      	33112.5828    	2616.00000    
303.0000      	33003.3003    	2599.89990    
304.0000      	32894.7368    	2602.19995    
305.0000      	32786.8852    	2602.69995    
306.0000      	32679.7386    	2604.39990    
307.0000      	32573.2899    	2613.69995    
308.0000      	32467.5325    	2585.00000    
309.0000      	32362.4595    	2648.69995    
310.0000      	32258.0645    	2613.10010    
311.0000      	32154.3408    	2612.39990    
312.0000      	32051.2821    	2597.89990    
313.0000      	31948.8818    	2616.39990    
314.0000      	31847.1338    	2602.39990    
315.0000      	31746.0317    	2627.89990    
316.0000      	31645.5696    	2605.30005    
317.0000      	31545.7413    	2593.89990    
318.0000      	31446.5409    	2603.69995    
319.0000      	31347.9624    	2615.10010    
320.0000      	31250.0000    	2628.50000    
321.0000      	31152.6480    	2608.69995    
322.0000      	31055.9006    	2594.69995    
323.0000      	30959.7523    	2600.30005    
324.0000      	30864.1975    	2646.00000    
325.0000      	30769.2308    	2605.19995    
326.0000      	30674.8466    	2589.10010    
327.0000      	30581.0398    	2607.00000    
328.0000      	30487.8049    	2598.80005    
329.0000      	30395.1368    	2607.39990    
330.0000      	30303.0303    	2616.69995    
331.0000      	30211.4804    	2615.10010    
332.0000      	30120.4819    	2625.00000    
333.0000      	30030.0300    	2639.60010    
334.0000      	29940.1198    	2605.80005    
335.0000      	29850.7463    	2618.10010    
336.0000      	29761.9048    	2609.19995    
337.0000      	29673.5905    	2620.39990    
338.0000      	29585.7988    	2618.10010    
339.0000      	29498.5251    	2604.50000    
340.0000      	29411.7647    	2605.69995    
341.0000      	29325.5132    	2615.39990    
342.0000      	29239.7661    	2601.50000    
343.0000      	29154.5190    	2611.80005    
344.0000      	29069.7674    	2632.89990    
345.0000      	28985.5072    	2666.00000    
346.0000      	28901.7341    	2628.89990    
347.0000      	28818.4438    	2608.19995    
348.0000      	28735.6322    	2632.89990    
349.0000      	28653.2951    	2692.89990    
350.0000      	28571.4286    	2740.30005    
351.0000      	28490.0285    	2653.39990    
352.0000      	28409.0909    	2654.00000    
353.0000      	28328.6119    	2614.80005    
354.0000      	28248.5876    	2632.30005    
355.0000      	28169.0141    	2644.89990    
356.0000      	28089.8876    	2615.80005    
357.0000      	28011.2045    	2765.00000    
358.0000      	27932.9609    	2796.89990    
359.0000      	27855.1532    	2679.30005    
360.0000      	27777.7778    	2665.39990    
361.0000      	27700.8310    	2646.39990    
362.0000      	27624.3094    	2694.60010    
363.0000      	27548.2094    	2615.10010    
364.0000      	27472.5275    	2617.80005    
365.0000      	27397.2603    	2615.00000    
366.0000      	27322.4044    	2616.80005    
367.0000      	27247.9564    	2653.69995    
368.0000      	27173.9130    	2648.50000    
369.0000      	27100.2710    	2684.69995    
370.0000      	27027.0270    	2625.39990    
371.0000      	26954.1779    	2609.10010    
372.0000      	26881.7204    	2687.30005    
373.0000      	26809.6515    	2617.10010    
374.0000      	26737.9679    	2628.19995    
375.0000      	26666.6667    	2608.30005    
376.0000      	26595.7447    	2607.80005    
377.0000      	26525.1989    	2633.60010    
378.0000      	26455.0265    	2624.80005    
379.0000      	26385.2243    	2629.30005    
380.0000      	26315.7895    	2725.00000    
381.0000      	26246.7192    	2858.60010    
382.0000      	26178.0105    	2650.30005    
383.0000      	26109.6606    	2642.19995    
384.0000      	26041.6667    	2631.39990    
385.0000      	25974.0260    	2670.10010    
386.0000      	25906.7358    	2681.30005    
387.0000      	25839.7933    	3925.50000    
388.0000      	25773.1959    	4079.30005    
389.0000      	25706.9409    	2832.19995    
390.0000      	25641.0256    	2781.50000    
391.0000      	25575.4476    	2667.60010    
392.0000      	25510.2041    	2609.80005    
393.0000      	25445.2926    	2625.30005    
394.0000      	25380.7107    	2637.69995    
395.0000      	25316.4557    	2870.19995    
396.0000      	25252.5253    	2749.10010    
397.0000      	25188.9169    	2654.39990    
398.0000      	25125.6281    	2616.19995    
399.0000      	25062.6566    	2652.89990    
400.0000      	25000.0000    	2695.19995    
401.0000      	24937.6559    	3571.69995    
402.0000      	24875.6219    	3339.50000    
403.0000      	24813.8958    	2754.69995    
404.0000      	24752.4752    	2770.69995    
405.0000      	24691.3580    	2609.80005    
406.0000      	24630.5419    	2620.69995    
407.0000      	24570.0246    	2628.50000    
408.0000      	24509.8039    	2616.80005    
409.0000      	24449.8778    	2608.00000    
410.0000      	24390.2439    	2632.19995    
411.0000      	24330.9002    	3068.50000    
412.0000      	24271.8447    	2768.60010    
413.0000      	24213.0751    	2751.39990    
414.0000      	24154.5894    	2705.80005    
415.0000      	24096.3855    	2623.80005    
416.0000      	24038.4615    	2664.89990    
417.0000      	23980.8153    	2613.30005    
418.0000      	23923.4450    	2615.10010    
419.0000      	23866.3484    	2601.30005    
420.0000      	23809.5238    	2655.60010    
421.0000      	23752.9691    	2606.30005    
422.0000      	23696.6825    	2629.60010    
423.0000      	23640.6619    	2612.60010    
424.0000      	23584.9057    	2621.39990    
425.0000      	23529.4118    	2661.30005    
426.0000      	23474.1784    	2684.00000    
427.0000      	23419.2037    	2702.19995    
428.0000      	23364.4860    	2611.19995    
429.0000      	23310.0233    	2625.89990    
430.0000      	23255.8140    	2617.30005    
431.0000      	23201.8561    	2639.19995    
432.0000      	23148.1481    	2626.60010    
433.0000      	23094.6882    	2650.00000    
434.0000      	23041.4747    	2621.80005    
435.0000      	22988.5057    	2630.60010    
436.0000      	22935.7798    	2613.50000    
437.0000      	22883.2952    	2697.00000    
438.0000      	22831.0502    	3111.39990    
439.0000      	22779.0433    	2781.00000    
440.0000      	22727.2727    	2684.19995    
441.0000      	22675.7370    	2655.60010    
442.0000      	22624.4344    	2903.19995    
443.0000      	22573.3634    	2840.80005    
444.0000      	22522.5225    	2716.69995    
445.0000      	22471.9101    	2680.69995    
446.0000      	22421.5247    	5472.00000    
447.0000      	22371.3647    	7970.10010    
448.0000      	22321.4286    	3873.19995    
449.0000      	22271.7149    	2743.00000    
450.0000      	22222.2222    	2652.19995    
451.0000      	22172.9490    	2638.89990    
452.0000      	22123.8938    	2633.19995    
453.0000      	22075.0552    	2746.89990    
454.0000      	22026.4317    	2724.89990    
455.0000      	21978.0220    	2624.10010    
456.0000      	21929.8246    	2646.69995    
457.0000      	21881.8381    	2732.19995    
458.0000      	21834.0611    	2707.30005    
459.0000      	21786.4924    	2639.60010    
460.0000      	21739.1304    	2631.19995    
461.0000      	21691.9740    	2651.19995    
462.0000      	21645.0216    	2689.50000    
463.0000      	21598.2721    	2660.00000    
464.0000      	21551.7241    	2726.60010    
465.0000      	21505.3763    	2701.60010    
466.0000      	21459.2275    	2666.60010    
467.0000      	21413.2762    	2711.60010    
468.0000      	21367.5214    	2723.39990    
469.0000      	21321.9616    	2677.10010    
470.0000      	21276.5957    	3357.60010    
471.0000      	21231.4225    	8232.90039    
472.0000      	21186.4407    	4519.79980    
473.0000      	21141.6490    	2827.39990    
474.0000      	21097.0464    	2656.19995    
475.0000      	21052.6316    	3083.80005    
476.0000      	21008.4034    	2743.19995    
477.0000      	20964.3606    	2654.39990    
478.0000      	20920.5021    	2665.00000    
479.0000      	20876.8267    	2830.89990    
480.0000      	20833.3333    	2704.00000    
481.0000      	20790.0208    	2865.50000    
482.0000      	20746.8880    	2929.60010    
483.0000      	20703.9337    	2808.50000    
484.0000      	20661.1570    	3077.19995    
485.0000      	20618.5567    	2750.60010    
486.0000      	20576.1317    	2748.19995    
487.0000      	20533.8809    	2765.19995    
488.0000      	20491.8033    	2809.30005    
489.0000      	20449.8978    	2778.30005    
490.0000      	20408.1633    	2653.50000    
491.0000      	20366.5988    	2681.80005    
492.0000      	20325.2033    	4327.89990    
493.0000      	20283.9757    	3395.39990    
494.0000      	20242.9150    	2729.00000    
495.0000      	20202.0202    	2709.69995    
496.0000      	20161.2903    	2866.69995    
497.0000      	20120.7243    	2666.69995    
498.0000      	20080.3213    	2699.60010    
499.0000      	20040.0802    	2637.00000    
500.0000      	20000.0000    	2818.10010    
501.0000      	19960.0798    	3232.39990    
502.0000      	19920.3187    	4536.29980    
503.0000      	19880.7157    	3267.39990    
504.0000      	19841.2698    	5440.70020    
505.0000      	19801.9802    	5060.39990    
506.0000      	19762.8458    	2887.60010    
507.0000      	19723.8659    	2709.69995    
508.0000      	19685.0394    	3608.39990    
509.0000      	19646.3654    	3116.00000    
510.0000      	19607.8431    	2661.60010    
511.0000      	19569.4716    	2700.69995    
512.0000      	19531.2500    	3374.19995    
513.0000      	19493.1774    	2734.80005    
514.0000      	19455.2529    	2734.00000    
515.0000      	19417.4757    	3271.19995    
516.0000      	19379.8450    	3001.80005    
517.0000      	19342.3598    	2668.50000    
518.0000      	19305.0193    	2663.00000    
519.0000      	19267.8227    	3487.00000    
520.0000      	19230.7692    	3170.00000    
521.0000      	19193.8580    	3683.00000    
522.0000      	19157.0881    	2929.50000    
523.0000      	19120.4589    	2927.00000    
524.0000      	19083.9695    	2935.39990    
525.0000      	19047.6190    	2651.00000    
526.0000      	19011.4068    	2622.19995    
527.0000      	18975.3321    	2652.30005    
528.0000      	18939.3939    	2672.89990    
529.0000      	18903.5917    	2641.19995    
530.0000      	18867.9245    	2797.69995    
531.0000      	18832.3917    	2832.19995    
532.0000      	18796.9925    	2717.39990    
533.0000      	18761.7261    	3334.19995    
534.0000      	18726.5918    	4034.00000    
535.0000      	18691.5888    	4998.79980    
536.0000      	18656.7164    	2885.39990    
537.0000      	18621.9739    	2799.30005    
538.0000      	18587.3606    	2940.60010    
539.0000      	18552.8757    	2689.30005    
540.0000      	18518.5185    	2653.19995    
541.0000      	18484.2884    	2883.50000    
542.0000      	18450.1845    	2789.30005    
543.0000      	18416.2063    	2716.39990    
544.0000      	18382.3529    	3445.80005    
545.0000      	18348.6239    	2731.10010    
546.0000      	18315.0183    	2686.60010    
547.0000      	18281.5356    	2644.39990    
548.0000      	18248.1752    	2633.69995    
549.0000      	18214.9362    	2622.39990    
550.0000      	18181.8182    	2678.00000    
551.0000      	18148.8203    	2624.60010    
552.0000      	18115.9420    	2614.10010    
553.0000      	18083.1826    	2621.89990    
554.0000      	18050.5415    	2648.19995    
555.0000      	18018.0180    	2631.30005    
556.0000      	17985.6115    	2612.89990    
557.0000      	17953.3214    	2698.19995    
558.0000      	17921.1470    	2636.89990    
559.0000      	17889.0877    	2650.19995    
560.0000      	17857.1429    	2661.19995    
561.0000      	17825.3119    	2637.50000    
562.0000      	17793.5943    	2615.19995    
563.0000      	17761.9893    	2639.39990    
564.0000      	17730.4965    	2633.00000    
565.0000      	17699.1150    	2625.69995    
566.0000      	17667.8445    	2642.89990    
567.0000      	17636.6843    	2634.60010    
568.0000      	17605.6338    	2639.39990    
569.0000      	17574.6924    	2629.69995    
570.0000      	17543.8596    	2645.30005    
