Unit Serial No : SM245-KSP200281-EU
Integration Time : 200 ms
Time Average: 5
Binning Average: 0
FFT Smoothing: 0%
Project Name : Project Name
Sample Name : 0068
Measurement No : 1
Measurement Time : 09/30/2022   15:00:10

Wavelength(nm)	Wavenumber(1/cm)	Intensity(Counts)
512.0000      	19531.2500    	3177.80005    
513.0000      	19493.1774    	3227.39990    
514.0000      	19455.2529    	3216.80005    
515.0000      	19417.4757    	3274.80005    
516.0000      	19379.8450    	3276.60010    
517.0000      	19342.3598    	3282.00000    
518.0000      	19305.0193    	3369.60010    
519.0000      	19267.8227    	3525.39990    
520.0000      	19230.7692    	3509.00000    
521.0000      	19193.8580    	3422.19995    
522.0000      	19157.0881    	3408.80005    
523.0000      	19120.4589    	3370.60010    
524.0000      	19083.9695    	3515.80005    
525.0000      	19047.6190    	3416.80005    
526.0000      	19011.4068    	3374.39990    
527.0000      	18975.3321    	3387.60010    
528.0000      	18939.3939    	3405.39990    
529.0000      	18903.5917    	3419.00000    
530.0000      	18867.9245    	3438.00000    
531.0000      	18832.3917    	3349.60010    
532.0000      	18796.9925    	3363.39990    
533.0000      	18761.7261    	3572.80005    
534.0000      	18726.5918    	3399.39990    
535.0000      	18691.5888    	3333.00000    
536.0000      	18656.7164    	3337.80005    
537.0000      	18621.9739    	3386.39990    
538.0000      	18587.3606    	3323.39990    
539.0000      	18552.8757    	3326.60010    
540.0000      	18518.5185    	3361.19995    
541.0000      	18484.2884    	3299.19995    
542.0000      	18450.1845    	3523.39990    
543.0000      	18416.2063    	3424.39990    
544.0000      	18382.3529    	3380.80005    
545.0000      	18348.6239    	3360.19995    
546.0000      	18315.0183    	3390.39990    
547.0000      	18281.5356    	3408.60010    
548.0000      	18248.1752    	3309.00000    
549.0000      	18214.9362    	3259.00000    
550.0000      	18181.8182    	3288.00000    
551.0000      	18148.8203    	3266.19995    
552.0000      	18115.9420    	3261.00000    
553.0000      	18083.1826    	3244.00000    
554.0000      	18050.5415    	3208.19995    
555.0000      	18018.0180    	3227.60010    
556.0000      	17985.6115    	3199.80005    
557.0000      	17953.3214    	3298.80005    
558.0000      	17921.1470    	3150.60010    
559.0000      	17889.0877    	3211.00000    
560.0000      	17857.1429    	3164.60010    
561.0000      	17825.3119    	3156.00000    
562.0000      	17793.5943    	3114.19995    
563.0000      	17761.9893    	3140.80005    
564.0000      	17730.4965    	3174.19995    
565.0000      	17699.1150    	3087.60010    
566.0000      	17667.8445    	3110.39990    
567.0000      	17636.6843    	3067.19995    
568.0000      	17605.6338    	3096.00000    
569.0000      	17574.6924    	3077.19995    
570.0000      	17543.8596    	3064.00000    
571.0000      	17513.1349    	3059.00000    
572.0000      	17482.5175    	3055.00000    
573.0000      	17452.0070    	3023.39990    
574.0000      	17421.6028    	3203.39990    
575.0000      	17391.3043    	3063.80005    
576.0000      	17361.1111    	3043.60010    
577.0000      	17331.0225    	3029.19995    
578.0000      	17301.0381    	3018.80005    
579.0000      	17271.1572    	2991.39990    
580.0000      	17241.3793    	2988.19995    
581.0000      	17211.7040    	2966.80005    
582.0000      	17182.1306    	3006.00000    
583.0000      	17152.6587    	3018.80005    
584.0000      	17123.2877    	2972.60010    
585.0000      	17094.0171    	3024.39990    
586.0000      	17064.8464    	3008.39990    
587.0000      	17035.7751    	2988.19995    
588.0000      	17006.8027    	3028.19995    
589.0000      	16977.9287    	3021.00000    
590.0000      	16949.1525    	3034.39990    
591.0000      	16920.4738    	3290.00000    
592.0000      	16891.8919    	3017.60010    
593.0000      	16863.4064    	3089.00000    
594.0000      	16835.0168    	3070.80005    
595.0000      	16806.7227    	3032.60010    
596.0000      	16778.5235    	3032.39990    
597.0000      	16750.4188    	3065.19995    
598.0000      	16722.4080    	3064.00000    
599.0000      	16694.4908    	3060.00000    
600.0000      	16666.6667    	3091.00000    
601.0000      	16638.9351    	3073.19995    
602.0000      	16611.2957    	3096.39990    
603.0000      	16583.7479    	3048.00000    
604.0000      	16556.2914    	3091.39990    
605.0000      	16528.9256    	3084.80005    
606.0000      	16501.6502    	3129.39990    
607.0000      	16474.4646    	3100.19995    
608.0000      	16447.3684    	3135.60010    
609.0000      	16420.3612    	3050.80005    
610.0000      	16393.4426    	3197.60010    
611.0000      	16366.6121    	3103.60010    
612.0000      	16339.8693    	3183.80005    
613.0000      	16313.2137    	3175.00000    
614.0000      	16286.6450    	3164.19995    
615.0000      	16260.1626    	3143.60010    
616.0000      	16233.7662    	3053.60010    
617.0000      	16207.4554    	3049.19995    
618.0000      	16181.2298    	3125.19995    
619.0000      	16155.0889    	3035.00000    
620.0000      	16129.0323    	3021.39990    
621.0000      	16103.0596    	3037.60010    
622.0000      	16077.1704    	3015.39990    
623.0000      	16051.3644    	3043.00000    
624.0000      	16025.6410    	3105.39990    
625.0000      	16000.0000    	3041.60010    
626.0000      	15974.4409    	2983.00000    
627.0000      	15948.9633    	3028.00000    
628.0000      	15923.5669    	2989.00000    
629.0000      	15898.2512    	3077.00000    
630.0000      	15873.0159    	3023.19995    
631.0000      	15847.8605    	3216.60010    
632.0000      	15822.7848    	3271.00000    
633.0000      	15797.7883    	35936.60156   
634.0000      	15772.8707    	48045.00000   
635.0000      	15748.0315    	8962.59961    
636.0000      	15723.2704    	4118.39990    
637.0000      	15698.5871    	3611.80005    
638.0000      	15673.9812    	3355.19995    
639.0000      	15649.4523    	3146.00000    
640.0000      	15625.0000    	3053.00000    
641.0000      	15600.6240    	3082.80005    
642.0000      	15576.3240    	2919.00000    
643.0000      	15552.0995    	2930.39990    
644.0000      	15527.9503    	2850.39990    
645.0000      	15503.8760    	2810.60010    
646.0000      	15479.8762    	2825.00000    
647.0000      	15455.9505    	2848.60010    
648.0000      	15432.0988    	2828.00000    
649.0000      	15408.3205    	2823.39990    
650.0000      	15384.6154    	2810.39990    
651.0000      	15360.9831    	2791.39990    
652.0000      	15337.4233    	2787.80005    
653.0000      	15313.9357    	2796.80005    
654.0000      	15290.5199    	2866.19995    
655.0000      	15267.1756    	2808.19995    
656.0000      	15243.9024    	2781.80005    
657.0000      	15220.7002    	2725.00000    
658.0000      	15197.5684    	2718.60010    
659.0000      	15174.5068    	2767.60010    
660.0000      	15151.5152    	2719.80005    
661.0000      	15128.5930    	2734.60010    
662.0000      	15105.7402    	2751.39990    
663.0000      	15082.9563    	2729.19995    
664.0000      	15060.2410    	2717.00000    
665.0000      	15037.5940    	2736.60010    
666.0000      	15015.0150    	2745.00000    
667.0000      	14992.5037    	2708.39990    
668.0000      	14970.0599    	2807.19995    
669.0000      	14947.6831    	2727.19995    
670.0000      	14925.3731    	2679.00000    
671.0000      	14903.1297    	2687.80005    
672.0000      	14880.9524    	2706.60010    
673.0000      	14858.8410    	2673.60010    
674.0000      	14836.7953    	2696.19995    
675.0000      	14814.8148    	2756.39990    
676.0000      	14792.8994    	2676.39990    
677.0000      	14771.0487    	2664.39990    
678.0000      	14749.2625    	2667.19995    
679.0000      	14727.5405    	2690.00000    
680.0000      	14705.8824    	2736.00000    
681.0000      	14684.2878    	2695.00000    
682.0000      	14662.7566    	2631.80005    
683.0000      	14641.2884    	2818.80005    
684.0000      	14619.8830    	2651.39990    
685.0000      	14598.5401    	2664.60010    
686.0000      	14577.2595    	2618.00000    
687.0000      	14556.0408    	2637.39990    
688.0000      	14534.8837    	2657.80005    
689.0000      	14513.7881    	2632.00000    
690.0000      	14492.7536    	2673.39990    
691.0000      	14471.7800    	2633.80005    
692.0000      	14450.8671    	2639.19995    
693.0000      	14430.0144    	2628.19995    
694.0000      	14409.2219    	2696.39990    
695.0000      	14388.4892    	2696.19995    
696.0000      	14367.8161    	2609.19995    
697.0000      	14347.2023    	2599.60010    
698.0000      	14326.6476    	2636.80005    
699.0000      	14306.1516    	2615.00000    
700.0000      	14285.7143    	2635.60010    
701.0000      	14265.3352    	2669.80005    
702.0000      	14245.0142    	2587.80005    
703.0000      	14224.7511    	2602.00000    
704.0000      	14204.5455    	2654.19995    
705.0000      	14184.3972    	2615.60010    
706.0000      	14164.3059    	2606.80005    
707.0000      	14144.2716    	2659.39990    
708.0000      	14124.2938    	2670.39990    
709.0000      	14104.3724    	2639.60010    
710.0000      	14084.5070    	2602.80005    
711.0000      	14064.6976    	2596.19995    
712.0000      	14044.9438    	2618.39990    
713.0000      	14025.2454    	2578.19995    
714.0000      	14005.6022    	2623.39990    
715.0000      	13986.0140    	2591.80005    
716.0000      	13966.4804    	2612.19995    
717.0000      	13947.0014    	2628.19995    
718.0000      	13927.5766    	2617.80005    
719.0000      	13908.2058    	2577.00000    
720.0000      	13888.8889    	2606.39990    
721.0000      	13869.6255    	2602.60010    
722.0000      	13850.4155    	2604.39990    
723.0000      	13831.2586    	2631.00000    
724.0000      	13812.1547    	2612.39990    
725.0000      	13793.1034    	2638.60010    
726.0000      	13774.1047    	2606.19995    
727.0000      	13755.1582    	2572.39990    
728.0000      	13736.2637    	2598.00000    
729.0000      	13717.4211    	2657.60010    
730.0000      	13698.6301    	2603.19995    
731.0000      	13679.8906    	2580.00000    
732.0000      	13661.2022    	2610.80005    
733.0000      	13642.5648    	2625.00000    
734.0000      	13623.9782    	2644.60010    
735.0000      	13605.4422    	2597.80005    
736.0000      	13586.9565    	2646.00000    
737.0000      	13568.5210    	2561.00000    
738.0000      	13550.1355    	2604.39990    
739.0000      	13531.7997    	2596.19995    
740.0000      	13513.5135    	2618.39990    
741.0000      	13495.2767    	2626.60010    
742.0000      	13477.0889    	2621.19995    
743.0000      	13458.9502    	2586.39990    
744.0000      	13440.8602    	2601.00000    
745.0000      	13422.8188    	2639.60010    
746.0000      	13404.8257    	2661.00000    
747.0000      	13386.8809    	2600.00000    
748.0000      	13368.9840    	2606.00000    
749.0000      	13351.1348    	2601.19995    
750.0000      	13333.3333    	2638.39990    
751.0000      	13315.5792    	2586.00000    
752.0000      	13297.8723    	2587.00000    
753.0000      	13280.2125    	2584.60010    
754.0000      	13262.5995    	2582.19995    
755.0000      	13245.0331    	2587.80005    
756.0000      	13227.5132    	2584.60010    
757.0000      	13210.0396    	2628.80005    
758.0000      	13192.6121    	2603.60010    
759.0000      	13175.2306    	2609.39990    
760.0000      	13157.8947    	2630.00000    
761.0000      	13140.6045    	2591.39990    
762.0000      	13123.3596    	2612.39990    
763.0000      	13106.1599    	2574.60010    
764.0000      	13089.0052    	2672.19995    
765.0000      	13071.8954    	2588.00000    
766.0000      	13054.8303    	2571.80005    
767.0000      	13037.8096    	2593.00000    
768.0000      	13020.8333    	2559.19995    
769.0000      	13003.9012    	2614.19995    
770.0000      	12987.0130    	2604.39990    
771.0000      	12970.1686    	2675.19995    
772.0000      	12953.3679    	2595.19995    
773.0000      	12936.6106    	2630.60010    
774.0000      	12919.8966    	2598.19995    
775.0000      	12903.2258    	2573.60010    
776.0000      	12886.5979    	2564.00000    
777.0000      	12870.0129    	2581.39990    
778.0000      	12853.4704    	2653.39990    
779.0000      	12836.9705    	2605.39990    
780.0000      	12820.5128    	2602.39990    
781.0000      	12804.0973    	2590.80005    
782.0000      	12787.7238    	2591.60010    
783.0000      	12771.3921    	2627.39990    
784.0000      	12755.1020    	2559.60010    
785.0000      	12738.8535    	2566.39990    
786.0000      	12722.6463    	2602.19995    
787.0000      	12706.4803    	2604.60010    
788.0000      	12690.3553    	2622.80005    
789.0000      	12674.2712    	2594.60010    
790.0000      	12658.2278    	2583.00000    
791.0000      	12642.2250    	2572.00000    
792.0000      	12626.2626    	2612.39990    
793.0000      	12610.3405    	2588.39990    
794.0000      	12594.4584    	2803.19995    
795.0000      	12578.6164    	2588.60010    
796.0000      	12562.8141    	2601.39990    
797.0000      	12547.0514    	2614.19995    
798.0000      	12531.3283    	2591.60010    
799.0000      	12515.6446    	2597.00000    
800.0000      	12500.0000    	2572.80005    
801.0000      	12484.3945    	2589.60010    
802.0000      	12468.8279    	2575.80005    
803.0000      	12453.3001    	2602.60010    
804.0000      	12437.8109    	2576.19995    
805.0000      	12422.3602    	2589.39990    
806.0000      	12406.9479    	2589.39990    
807.0000      	12391.5737    	2593.80005    
808.0000      	12376.2376    	2617.39990    
809.0000      	12360.9394    	2596.00000    
810.0000      	12345.6790    	2617.80005    
811.0000      	12330.4562    	2665.39990    
812.0000      	12315.2709    	2592.19995    
813.0000      	12300.1230    	2591.60010    
814.0000      	12285.0123    	2577.00000    
815.0000      	12269.9387    	2612.00000    
816.0000      	12254.9020    	2586.39990    
817.0000      	12239.9021    	2602.39990    
818.0000      	12224.9389    	2591.00000    
819.0000      	12210.0122    	2582.60010    
820.0000      	12195.1220    	2582.19995    
821.0000      	12180.2680    	2615.80005    
822.0000      	12165.4501    	2603.80005    
823.0000      	12150.6683    	2610.19995    
824.0000      	12135.9223    	2610.00000    
825.0000      	12121.2121    	2582.19995    
826.0000      	12106.5375    	2585.80005    
827.0000      	12091.8984    	2636.19995    
828.0000      	12077.2947    	2588.00000    
829.0000      	12062.7262    	2584.60010    
830.0000      	12048.1928    	2604.39990    
831.0000      	12033.6943    	2611.80005    
832.0000      	12019.2308    	2569.19995    
833.0000      	12004.8019    	2811.80005    
834.0000      	11990.4077    	2588.19995    
835.0000      	11976.0479    	2587.39990    
836.0000      	11961.7225    	2588.00000    
837.0000      	11947.4313    	2605.19995    
838.0000      	11933.1742    	2618.60010    
839.0000      	11918.9511    	2599.60010    
840.0000      	11904.7619    	2598.39990    
841.0000      	11890.6064    	2578.80005    
842.0000      	11876.4846    	2557.60010    
843.0000      	11862.3962    	2638.00000    
844.0000      	11848.3412    	2570.00000    
845.0000      	11834.3195    	2625.19995    
846.0000      	11820.3310    	2576.60010    
847.0000      	11806.3754    	2590.19995    
848.0000      	11792.4528    	2592.19995    
849.0000      	11778.5630    	2639.60010    
850.0000      	11764.7059    	2611.80005    
851.0000      	11750.8813    	2607.80005    
852.0000      	11737.0892    	2632.00000    
853.0000      	11723.3294    	2594.00000    
854.0000      	11709.6019    	2648.39990    
855.0000      	11695.9064    	2614.80005    
856.0000      	11682.2430    	2591.19995    
857.0000      	11668.6114    	2597.60010    
858.0000      	11655.0117    	2608.00000    
859.0000      	11641.4435    	2569.39990    
860.0000      	11627.9070    	2567.60010    
861.0000      	11614.4019    	2607.19995    
862.0000      	11600.9281    	2587.19995    
863.0000      	11587.4855    	2607.60010    
864.0000      	11574.0741    	2636.19995    
865.0000      	11560.6936    	2604.00000    
866.0000      	11547.3441    	2565.19995    
867.0000      	11534.0254    	2610.00000    
868.0000      	11520.7373    	2621.00000    
869.0000      	11507.4799    	2586.60010    
870.0000      	11494.2529    	2589.39990    
871.0000      	11481.0563    	2620.39990    
872.0000      	11467.8899    	2598.19995    
873.0000      	11454.7537    	2598.80005    
874.0000      	11441.6476    	2602.00000    
875.0000      	11428.5714    	2615.80005    
876.0000      	11415.5251    	2590.39990    
877.0000      	11402.5086    	2610.60010    
878.0000      	11389.5216    	2623.60010    
879.0000      	11376.5643    	2599.60010    
880.0000      	11363.6364    	2600.80005    
881.0000      	11350.7378    	2596.00000    
882.0000      	11337.8685    	2603.39990    
883.0000      	11325.0283    	2575.19995    
884.0000      	11312.2172    	2584.80005    
885.0000      	11299.4350    	2563.60010    
886.0000      	11286.6817    	2586.19995    
887.0000      	11273.9572    	2598.60010    
888.0000      	11261.2613    	2606.19995    
889.0000      	11248.5939    	2590.39990    
890.0000      	11235.9551    	2582.80005    
891.0000      	11223.3446    	2634.60010    
892.0000      	11210.7623    	2605.80005    
893.0000      	11198.2083    	2622.80005    
894.0000      	11185.6823    	2578.19995    
895.0000      	11173.1844    	2590.60010    
896.0000      	11160.7143    	2575.60010    
897.0000      	11148.2720    	2593.00000    
898.0000      	11135.8575    	2572.39990    
899.0000      	11123.4705    	2586.19995    
900.0000      	11111.1111    	2603.19995    
901.0000      	11098.7791    	2581.00000    
902.0000      	11086.4745    	2635.39990    
903.0000      	11074.1971    	2591.19995    
904.0000      	11061.9469    	2577.80005    
905.0000      	11049.7238    	2583.19995    
906.0000      	11037.5276    	2584.39990    
907.0000      	11025.3583    	2597.39990    
908.0000      	11013.2159    	2575.80005    
909.0000      	11001.1001    	2592.80005    
910.0000      	10989.0110    	2586.39990    
911.0000      	10976.9484    	2651.19995    
912.0000      	10964.9123    	2593.60010    
913.0000      	10952.9025    	2587.80005    
914.0000      	10940.9190    	2603.39990    
915.0000      	10928.9617    	2619.19995    
916.0000      	10917.0306    	2596.80005    
917.0000      	10905.1254    	2604.00000    
918.0000      	10893.2462    	2606.39990    
919.0000      	10881.3928    	2588.19995    
920.0000      	10869.5652    	2594.19995    
921.0000      	10857.7633    	2700.80005    
922.0000      	10845.9870    	2581.39990    
923.0000      	10834.2362    	2589.19995    
924.0000      	10822.5108    	2606.80005    
925.0000      	10810.8108    	2604.00000    
926.0000      	10799.1361    	2608.80005    
927.0000      	10787.4865    	2584.00000    
928.0000      	10775.8621    	2605.80005    
929.0000      	10764.2626    	2612.19995    
930.0000      	10752.6882    	2588.00000    
931.0000      	10741.1386    	2573.00000    
932.0000      	10729.6137    	2604.80005    
933.0000      	10718.1136    	2633.00000    
934.0000      	10706.6381    	2582.39990    
935.0000      	10695.1872    	2589.00000    
936.0000      	10683.7607    	2589.39990    
937.0000      	10672.3586    	2601.80005    
938.0000      	10660.9808    	2662.00000    
939.0000      	10649.6273    	2596.00000    
940.0000      	10638.2979    	2595.80005    
941.0000      	10626.9926    	2603.00000    
942.0000      	10615.7113    	2596.80005    
943.0000      	10604.4539    	2621.80005    
944.0000      	10593.2203    	2583.60010    
945.0000      	10582.0106    	2580.39990    
946.0000      	10570.8245    	2558.80005    
947.0000      	10559.6621    	2602.60010    
948.0000      	10548.5232    	2608.00000    
949.0000      	10537.4078    	2596.60010    
