[C:\Users\Physics-Lab\Desktop\Programs\Hyun\R-Tmeasurement-4pt_325.exe 1 1 221125_ht.dat 1e-2 50 300 3 ]

Time(sec)	Temperature(K)	     Resistance(Ohm)	    Current(A) TempError(K) ResError(Ohm) CurrError(A)
2.365	47.733	8.18E-04	1.00E-02	0	0.00000000e+000   0.0000e+000	
4.75	47.502	3.63E-03	1.00E-02	0	0.00000000e+000   0.0000e+000	
7.139	47.376	-2.08E-03	1.00E-02	0	0.00000000e+000   0.0000e+000	
9.54	47.294	8.24E-04	1.00E-02	0	0.00000000e+000   0.0000e+000	
11.94	47.237	9.10E-04	1.00E-02	0	0.00000000e+000   0.0000e+000	
14.34	47.195	7.61E-04	1.00E-02	0	0.00000000e+000   0.0000e+000	
16.744	47.165	-9.13E-04	1.00E-02	0	0.00000000e+000   0.0000e+000	
19.143	47.149	1.25E-03	1.00E-02	0	0.00000000e+000   0.0000e+000	
21.543	47.14	1.71E-03	1.00E-02	0	0.00000000e+000   0.0000e+000	
23.944	47.145	1.25E-03	1.00E-02	0	0.00000000e+000   0.0000e+000	
26.343	47.153	1.35E-03	1.00E-02	0	0.00000000e+000   0.0000e+000	
28.747	47.171	1.60E-03	1.00E-02	0	0.00000000e+000   0.0000e+000	
31.143	47.2	3.33E-03	1.00E-02	0	0.00000000e+000   0.0000e+000	
33.546	47.233	1.08E-03	1.00E-02	0	0.00000000e+000   0.0000e+000	
35.946	47.274	1.36E-03	1.00E-02	0	0.00000000e+000   0.0000e+000	
38.348	47.318	1.28E-03	1.00E-02	0	0.00000000e+000   0.0000e+000	
40.751	47.369	1.22E-03	1.00E-02	0	0.00000000e+000   0.0000e+000	
43.15	47.426	9.58E-04	1.00E-02	0	0.00000000e+000   0.0000e+000	
45.552	47.491	1.39E-03	1.00E-02	0	0.00000000e+000   0.0000e+000	
47.955	47.561	1.01E-03	1.00E-02	0	0.00000000e+000   0.0000e+000	
50.349	47.636	1.12E-03	1.00E-02	0	0.00000000e+000   0.0000e+000	
52.756	47.718	1.26E-03	1.00E-02	0	0.00000000e+000   0.0000e+000	
55.149	47.802	1.56E-03	1.00E-02	0	0.00000000e+000   0.0000e+000	
57.55	47.891	1.25E-03	1.00E-02	0	0.00000000e+000   0.0000e+000	
59.951	47.984	1.14E-03	1.00E-02	0	0.00000000e+000   0.0000e+000	
62.35	48.077	1.45E-03	1.00E-02	0	0.00000000e+000   0.0000e+000	
64.753	48.172	9.49E-04	1.00E-02	0	0.00000000e+000   0.0000e+000	
67.151	48.272	9.82E-04	1.00E-02	0	0.00000000e+000   0.0000e+000	
69.551	48.374	1.35E-03	1.00E-02	0	0.00000000e+000   0.0000e+000	
71.952	48.477	1.23E-03	1.00E-02	0	0.00000000e+000   0.0000e+000	
74.352	48.586	1.05E-03	1.00E-02	0	0.00000000e+000   0.0000e+000	
76.757	48.694	1.29E-03	1.00E-02	0	0.00000000e+000   0.0000e+000	
79.153	48.802	1.31E-03	1.00E-02	0	0.00000000e+000   0.0000e+000	
81.553	48.909	1.09E-03	1.00E-02	0	0.00000000e+000   0.0000e+000	
83.954	49.016	1.20E-03	1.00E-02	0	0.00000000e+000   0.0000e+000	
86.356	49.122	1.38E-03	1.00E-02	0	0.00000000e+000   0.0000e+000	
88.759	49.233	1.11E-03	1.00E-02	0	0.00000000e+000   0.0000e+000	
91.158	49.342	1.30E-03	1.00E-02	0	0.00000000e+000   0.0000e+000	
93.558	49.453	1.31E-03	1.00E-02	0	0.00000000e+000   0.0000e+000	
95.96	49.565	9.07E-04	1.00E-02	0	0.00000000e+000   0.0000e+000	
98.386	49.677	1.15E-03	1.00E-02	0	0.00000000e+000   0.0000e+000	
100.762	49.672	1.23E-03	1.00E-02	0	0.00000000e+000   0.0000e+000	
103.159	49.755	1.48E-03	1.00E-02	0	0.00000000e+000   0.0000e+000	
105.563	49.875	8.83E-04	1.00E-02	0	0.00000000e+000   0.0000e+000	
107.959	49.998	1.27E-03	1.00E-02	0	0.00000000e+000   0.0000e+000	
110.36	50.121	1.25E-03	1.00E-02	0	0.00000000e+000   0.0000e+000	
112.762	50.244	1.12E-03	1.00E-02	0	0.00000000e+000   0.0000e+000	
115.161	50.364	1.26E-03	1.00E-02	0	0.00000000e+000   0.0000e+000	
117.561	50.483	1.33E-03	1.00E-02	0	0.00000000e+000   0.0000e+000	
119.961	50.599	1.26E-03	1.00E-02	0	0.00000000e+000   0.0000e+000	
122.363	50.716	6.99E-04	1.00E-02	0	0.00000000e+000   0.0000e+000	
124.766	50.83	1.30E-03	1.00E-02	0	0.00000000e+000   0.0000e+000	
127.163	50.946	1.17E-03	1.00E-02	0	0.00000000e+000   0.0000e+000	
129.563	51.061	1.33E-03	1.00E-02	0	0.00000000e+000   0.0000e+000	
131.964	51.173	9.39E-04	1.00E-02	0	0.00000000e+000   0.0000e+000	
134.364	51.285	1.26E-03	1.00E-02	0	0.00000000e+000   0.0000e+000	
136.768	51.399	1.14E-03	1.00E-02	0	0.00000000e+000   0.0000e+000	
139.165	51.513	1.15E-03	1.00E-02	0	0.00000000e+000   0.0000e+000	
141.568	51.623	1.16E-03	1.00E-02	0	0.00000000e+000   0.0000e+000	
143.97	51.737	1.13E-03	1.00E-02	0	0.00000000e+000   0.0000e+000	
146.373	51.846	1.17E-03	1.00E-02	0	0.00000000e+000   0.0000e+000	
148.771	51.961	1.16E-03	1.00E-02	0	0.00000000e+000   0.0000e+000	
151.169	52.071	1.30E-03	1.00E-02	0	0.00000000e+000   0.0000e+000	
153.567	52.183	1.09E-03	1.00E-02	0	0.00000000e+000   0.0000e+000	
155.967	52.296	1.24E-03	1.00E-02	0	0.00000000e+000   0.0000e+000	
158.368	52.407	1.26E-03	1.00E-02	0	0.00000000e+000   0.0000e+000	
160.771	52.516	1.26E-03	1.00E-02	0	0.00000000e+000   0.0000e+000	
163.169	52.624	1.12E-03	1.00E-02	0	0.00000000e+000   0.0000e+000	
165.57	52.736	1.03E-03	1.00E-02	0	0.00000000e+000   0.0000e+000	
167.97	52.849	1.21E-03	1.00E-02	0	0.00000000e+000   0.0000e+000	
170.37	52.96	1.37E-03	1.00E-02	0	0.00000000e+000   0.0000e+000	
172.773	53.072	1.18E-03	1.00E-02	0	0.00000000e+000   0.0000e+000	
175.171	53.182	1.33E-03	1.00E-02	0	0.00000000e+000   0.0000e+000	
177.572	53.292	1.20E-03	1.00E-02	0	0.00000000e+000   0.0000e+000	
179.972	53.403	1.25E-03	1.00E-02	0	0.00000000e+000   0.0000e+000	
182.372	53.514	1.19E-03	1.00E-02	0	0.00000000e+000   0.0000e+000	
184.777	53.63	1.25E-03	1.00E-02	0	0.00000000e+000   0.0000e+000	
187.173	53.735	1.26E-03	1.00E-02	0	0.00000000e+000   0.0000e+000	
189.576	53.848	1.24E-03	1.00E-02	0	0.00000000e+000   0.0000e+000	
191.978	53.958	1.20E-03	1.00E-02	0	0.00000000e+000   0.0000e+000	
194.382	54.067	1.29E-03	1.00E-02	0	0.00000000e+000   0.0000e+000	
196.779	54.169	1.09E-03	1.00E-02	0	0.00000000e+000   0.0000e+000	
199.178	54.272	1.24E-03	1.00E-02	0	0.00000000e+000   0.0000e+000	
201.583	54.377	1.14E-03	1.00E-02	0	0.00000000e+000   0.0000e+000	
203.976	54.479	1.16E-03	1.00E-02	0	0.00000000e+000   0.0000e+000	
206.376	54.585	1.16E-03	1.00E-02	0	0.00000000e+000   0.0000e+000	
208.78	54.687	1.06E-03	1.00E-02	0	0.00000000e+000   0.0000e+000	
211.178	54.793	1.15E-03	1.00E-02	0	0.00000000e+000   0.0000e+000	
213.579	54.897	1.13E-03	1.00E-02	0	0.00000000e+000   0.0000e+000	
215.979	55.003	1.17E-03	1.00E-02	0	0.00000000e+000   0.0000e+000	
218.379	55.115	1.23E-03	1.00E-02	0	0.00000000e+000   0.0000e+000	
220.782	55.226	1.21E-03	1.00E-02	0	0.00000000e+000   0.0000e+000	
223.179	55.337	1.19E-03	1.00E-02	0	0.00000000e+000   0.0000e+000	
225.579	55.448	1.21E-03	1.00E-02	0	0.00000000e+000   0.0000e+000	
227.981	55.558	1.10E-03	1.00E-02	0	0.00000000e+000   0.0000e+000	
230.384	55.669	1.08E-03	1.00E-02	0	0.00000000e+000   0.0000e+000	
232.785	55.782	1.18E-03	1.00E-02	0	0.00000000e+000   0.0000e+000	
235.185	55.891	1.07E-03	1.00E-02	0	0.00000000e+000   0.0000e+000	
237.584	56.003	1.23E-03	1.00E-02	0	0.00000000e+000   0.0000e+000	
239.987	56.116	1.16E-03	1.00E-02	0	0.00000000e+000   0.0000e+000	
242.389	56.225	1.16E-03	1.00E-02	0	0.00000000e+000   0.0000e+000	
244.789	56.335	1.04E-03	1.00E-02	0	0.00000000e+000   0.0000e+000	
247.187	56.449	1.04E-03	1.00E-02	0	0.00000000e+000   0.0000e+000	
249.592	56.56	1.04E-03	1.00E-02	0	0.00000000e+000   0.0000e+000	
251.985	56.673	1.14E-03	1.00E-02	0	0.00000000e+000   0.0000e+000	
254.386	56.781	1.09E-03	1.00E-02	0	0.00000000e+000   0.0000e+000	
256.789	56.897	1.13E-03	1.00E-02	0	0.00000000e+000   0.0000e+000	
259.186	57.008	1.13E-03	1.00E-02	0	0.00000000e+000   0.0000e+000	
261.586	57.119	9.86E-04	1.00E-02	0	0.00000000e+000   0.0000e+000	
263.987	57.232	1.19E-03	1.00E-02	0	0.00000000e+000   0.0000e+000	
266.387	57.345	1.03E-03	1.00E-02	0	0.00000000e+000   0.0000e+000	
268.791	57.458	1.14E-03	1.00E-02	0	0.00000000e+000   0.0000e+000	
271.188	57.572	1.10E-03	1.00E-02	0	0.00000000e+000   0.0000e+000	
273.59	57.684	1.17E-03	1.00E-02	0	0.00000000e+000   0.0000e+000	
275.989	57.797	1.09E-03	1.00E-02	0	0.00000000e+000   0.0000e+000	
278.391	57.912	1.12E-03	1.00E-02	0	0.00000000e+000   0.0000e+000	
280.795	58.023	1.06E-03	1.00E-02	0	0.00000000e+000   0.0000e+000	
283.194	58.134	1.09E-03	1.00E-02	0	0.00000000e+000   0.0000e+000	
285.597	58.247	1.03E-03	1.00E-02	0	0.00000000e+000   0.0000e+000	
287.999	58.355	1.09E-03	1.00E-02	0	0.00000000e+000   0.0000e+000	
290.394	58.47	1.05E-03	1.00E-02	0	0.00000000e+000   0.0000e+000	
292.799	58.58	9.70E-04	1.00E-02	0	0.00000000e+000   0.0000e+000	
295.193	58.694	1.05E-03	1.00E-02	0	0.00000000e+000   0.0000e+000	
297.594	58.805	1.17E-03	1.00E-02	0	0.00000000e+000   0.0000e+000	
299.995	58.918	1.01E-03	1.00E-02	0	0.00000000e+000   0.0000e+000	
302.394	59.027	1.10E-03	1.00E-02	0	0.00000000e+000   0.0000e+000	
304.798	59.14	1.06E-03	1.00E-02	0	0.00000000e+000   0.0000e+000	
307.196	59.252	1.03E-03	1.00E-02	0	0.00000000e+000   0.0000e+000	
309.596	59.363	9.63E-04	1.00E-02	0	0.00000000e+000   0.0000e+000	
311.997	59.473	1.01E-03	1.00E-02	0	0.00000000e+000   0.0000e+000	
314.397	59.586	8.71E-04	1.00E-02	0	0.00000000e+000   0.0000e+000	
316.801	59.698	9.78E-04	1.00E-02	0	0.00000000e+000   0.0000e+000	
319.198	59.811	8.95E-04	1.00E-02	0	0.00000000e+000   0.0000e+000	
321.598	59.921	9.64E-04	1.00E-02	0	0.00000000e+000   0.0000e+000	
323.999	60.033	9.86E-04	1.00E-02	0	0.00000000e+000   0.0000e+000	
326.402	60.139	9.59E-04	1.00E-02	0	0.00000000e+000   0.0000e+000	
328.804	60.244	9.27E-04	1.00E-02	0	0.00000000e+000   0.0000e+000	
331.203	60.351	9.38E-04	1.00E-02	0	0.00000000e+000   0.0000e+000	
333.603	60.458	9.56E-04	1.00E-02	0	0.00000000e+000   0.0000e+000	
336.005	60.563	9.62E-04	1.00E-02	0	0.00000000e+000   0.0000e+000	
338.408	60.669	9.63E-04	1.00E-02	0	0.00000000e+000   0.0000e+000	
340.807	60.774	9.67E-04	1.00E-02	0	0.00000000e+000   0.0000e+000	
343.205	60.878	9.48E-04	1.00E-02	0	0.00000000e+000   0.0000e+000	
345.607	60.986	9.57E-04	1.00E-02	0	0.00000000e+000   0.0000e+000	
348.003	61.09	8.87E-04	1.00E-02	0	0.00000000e+000   0.0000e+000	
350.405	61.195	9.12E-04	1.00E-02	0	0.00000000e+000   0.0000e+000	
352.807	61.3	8.83E-04	1.00E-02	0	0.00000000e+000   0.0000e+000	
355.205	61.408	9.20E-04	1.00E-02	0	0.00000000e+000   0.0000e+000	
357.604	61.514	8.48E-04	1.00E-02	0	0.00000000e+000   0.0000e+000	
360.005	61.621	9.40E-04	1.00E-02	0	0.00000000e+000   0.0000e+000	
362.406	61.726	8.41E-04	1.00E-02	0	0.00000000e+000   0.0000e+000	
364.81	61.831	9.14E-04	1.00E-02	0	0.00000000e+000   0.0000e+000	
367.208	61.939	8.62E-04	1.00E-02	0	0.00000000e+000   0.0000e+000	
369.608	62.049	8.59E-04	1.00E-02	0	0.00000000e+000   0.0000e+000	
372.008	62.163	9.18E-04	1.00E-02	0	0.00000000e+000   0.0000e+000	
374.408	62.275	8.73E-04	1.00E-02	0	0.00000000e+000   0.0000e+000	
376.813	62.387	8.95E-04	1.00E-02	0	0.00000000e+000   0.0000e+000	
379.211	62.5	9.16E-04	1.00E-02	0	0.00000000e+000   0.0000e+000	
381.611	62.615	9.41E-04	1.00E-02	0	0.00000000e+000   0.0000e+000	
384.013	62.728	9.37E-04	1.00E-02	0	0.00000000e+000   0.0000e+000	
386.413	62.84	9.08E-04	1.00E-02	0	0.00000000e+000   0.0000e+000	
388.819	62.953	8.79E-04	1.00E-02	0	0.00000000e+000   0.0000e+000	
391.218	63.064	8.40E-04	1.00E-02	0	0.00000000e+000   0.0000e+000	
393.612	63.166	8.70E-04	1.00E-02	0	0.00000000e+000   0.0000e+000	
396.015	63.275	8.34E-04	1.00E-02	0	0.00000000e+000   0.0000e+000	
398.419	63.382	8.48E-04	1.00E-02	0	0.00000000e+000   0.0000e+000	
400.815	63.487	8.89E-04	1.00E-02	0	0.00000000e+000   0.0000e+000	
403.214	63.594	8.67E-04	1.00E-02	0	0.00000000e+000   0.0000e+000	
405.614	63.701	8.60E-04	1.00E-02	0	0.00000000e+000   0.0000e+000	
408.015	63.808	8.37E-04	1.00E-02	0	0.00000000e+000   0.0000e+000	
410.415	63.915	8.43E-04	1.00E-02	0	0.00000000e+000   0.0000e+000	
412.818	64.02	8.69E-04	1.00E-02	0	0.00000000e+000   0.0000e+000	
415.215	64.128	8.22E-04	1.00E-02	0	0.00000000e+000   0.0000e+000	
417.615	64.235	8.33E-04	1.00E-02	0	0.00000000e+000   0.0000e+000	
420.017	64.341	8.10E-04	1.00E-02	0	0.00000000e+000   0.0000e+000	
422.418	64.447	7.85E-04	1.00E-02	0	0.00000000e+000   0.0000e+000	
424.821	64.553	7.59E-04	1.00E-02	0	0.00000000e+000   0.0000e+000	
427.218	64.659	7.86E-04	1.00E-02	0	0.00000000e+000   0.0000e+000	
429.62	64.767	7.54E-04	1.00E-02	0	0.00000000e+000   0.0000e+000	
432.019	64.873	7.86E-04	1.00E-02	0	0.00000000e+000   0.0000e+000	
434.419	64.979	7.36E-04	1.00E-02	0	0.00000000e+000   0.0000e+000	
436.825	65.086	7.96E-04	1.00E-02	0	0.00000000e+000   0.0000e+000	
439.225	65.193	7.50E-04	1.00E-02	0	0.00000000e+000   0.0000e+000	
441.627	65.298	7.95E-04	1.00E-02	0	0.00000000e+000   0.0000e+000	
444.021	65.403	8.13E-04	1.00E-02	0	0.00000000e+000   0.0000e+000	
446.424	65.511	8.17E-04	1.00E-02	0	0.00000000e+000   0.0000e+000	
448.83	65.618	7.88E-04	1.00E-02	0	0.00000000e+000   0.0000e+000	
451.223	65.727	8.29E-04	1.00E-02	0	0.00000000e+000   0.0000e+000	
453.623	65.837	8.44E-04	1.00E-02	0	0.00000000e+000   0.0000e+000	
456.024	65.944	7.76E-04	1.00E-02	0	0.00000000e+000   0.0000e+000	
458.424	66.054	7.46E-04	1.00E-02	0	0.00000000e+000   0.0000e+000	
460.828	66.163	7.43E-04	1.00E-02	0	0.00000000e+000   0.0000e+000	
463.225	66.273	8.15E-04	1.00E-02	0	0.00000000e+000   0.0000e+000	
465.625	66.383	7.66E-04	1.00E-02	0	0.00000000e+000   0.0000e+000	
468.025	66.493	8.26E-04	1.00E-02	0	0.00000000e+000   0.0000e+000	
470.426	66.602	7.86E-04	1.00E-02	0	0.00000000e+000   0.0000e+000	
472.83	66.708	8.24E-04	1.00E-02	0	0.00000000e+000   0.0000e+000	
475.228	66.82	8.35E-04	1.00E-02	0	0.00000000e+000   0.0000e+000	
477.628	66.927	7.58E-04	1.00E-02	0	0.00000000e+000   0.0000e+000	
480.03	67.037	7.44E-04	1.00E-02	0	0.00000000e+000   0.0000e+000	
482.429	67.151	7.89E-04	1.00E-02	0	0.00000000e+000   0.0000e+000	
484.835	67.265	8.07E-04	1.00E-02	0	0.00000000e+000   0.0000e+000	
487.234	67.381	7.91E-04	1.00E-02	0	0.00000000e+000   0.0000e+000	
489.637	67.493	7.91E-04	1.00E-02	0	0.00000000e+000   0.0000e+000	
492.032	67.607	7.62E-04	1.00E-02	0	0.00000000e+000   0.0000e+000	
494.434	67.722	7.92E-04	1.00E-02	0	0.00000000e+000   0.0000e+000	
496.834	67.836	7.74E-04	1.00E-02	0	0.00000000e+000   0.0000e+000	
499.231	67.952	7.63E-04	1.00E-02	0	0.00000000e+000   0.0000e+000	
501.632	68.059	7.49E-04	1.00E-02	0	0.00000000e+000   0.0000e+000	
504.033	68.168	4.65E-04	1.00E-02	0	0.00000000e+000   0.0000e+000	
506.432	68.275	4.86E-04	1.00E-02	0	0.00000000e+000   0.0000e+000	
508.837	68.384	5.90E-04	1.00E-02	0	0.00000000e+000   0.0000e+000	
511.234	68.49	5.68E-04	1.00E-02	0	0.00000000e+000   0.0000e+000	
513.634	68.599	5.48E-04	1.00E-02	0	0.00000000e+000   0.0000e+000	
516.034	68.707	5.65E-04	1.00E-02	0	0.00000000e+000   0.0000e+000	
518.435	68.813	6.51E-04	1.00E-02	0	0.00000000e+000   0.0000e+000	
520.839	68.919	5.32E-04	1.00E-02	0	0.00000000e+000   0.0000e+000	
523.237	69.028	6.18E-04	1.00E-02	0	0.00000000e+000   0.0000e+000	
525.637	69.136	5.80E-04	1.00E-02	0	0.00000000e+000   0.0000e+000	
528.039	69.244	6.12E-04	1.00E-02	0	0.00000000e+000   0.0000e+000	
530.439	69.351	5.68E-04	1.00E-02	0	0.00000000e+000   0.0000e+000	
532.845	69.459	6.08E-04	1.00E-02	0	0.00000000e+000   0.0000e+000	
535.244	69.567	6.54E-04	1.00E-02	0	0.00000000e+000   0.0000e+000	
537.647	69.673	6.16E-04	1.00E-02	0	0.00000000e+000   0.0000e+000	
540.041	69.78	6.71E-04	1.00E-02	0	0.00000000e+000   0.0000e+000	
542.445	69.887	5.88E-04	1.00E-02	0	0.00000000e+000   0.0000e+000	
544.844	69.995	5.72E-04	1.00E-02	0	0.00000000e+000   0.0000e+000	
547.241	70.102	6.17E-04	1.00E-02	0	0.00000000e+000   0.0000e+000	
549.642	70.21	6.17E-04	1.00E-02	0	0.00000000e+000   0.0000e+000	
552.043	70.318	6.35E-04	1.00E-02	0	0.00000000e+000   0.0000e+000	
554.443	70.423	6.40E-04	1.00E-02	0	0.00000000e+000   0.0000e+000	
556.846	70.531	5.59E-04	1.00E-02	0	0.00000000e+000   0.0000e+000	
559.243	70.636	4.77E-04	1.00E-02	0	0.00000000e+000   0.0000e+000	
561.644	70.745	4.95E-04	1.00E-02	0	0.00000000e+000   0.0000e+000	
564.045	70.853	4.75E-04	1.00E-02	0	0.00000000e+000   0.0000e+000	
566.445	70.96	5.02E-04	1.00E-02	0	0.00000000e+000   0.0000e+000	
568.849	71.068	4.67E-04	1.00E-02	0	0.00000000e+000   0.0000e+000	
571.248	71.178	4.96E-04	1.00E-02	0	0.00000000e+000   0.0000e+000	
573.647	71.287	4.91E-04	1.00E-02	0	0.00000000e+000   0.0000e+000	
576.047	71.399	4.81E-04	1.00E-02	0	0.00000000e+000   0.0000e+000	
578.451	71.506	3.98E-04	1.00E-02	0	0.00000000e+000   0.0000e+000	
580.856	71.619	4.48E-04	1.00E-02	0	0.00000000e+000   0.0000e+000	
583.255	71.726	4.76E-04	1.00E-02	0	0.00000000e+000   0.0000e+000	
585.649	71.835	4.59E-04	1.00E-02	0	0.00000000e+000   0.0000e+000	
588.052	71.947	4.60E-04	1.00E-02	0	0.00000000e+000   0.0000e+000	
590.454	72.059	4.35E-04	1.00E-02	0	0.00000000e+000   0.0000e+000	
592.852	72.172	4.55E-04	1.00E-02	0	0.00000000e+000   0.0000e+000	
595.25	72.28	4.44E-04	1.00E-02	0	0.00000000e+000   0.0000e+000	
597.65	72.395	3.87E-04	1.00E-02	0	0.00000000e+000   0.0000e+000	
600.051	72.504	4.71E-04	1.00E-02	0	0.00000000e+000   0.0000e+000	
602.451	72.616	4.06E-04	1.00E-02	0	0.00000000e+000   0.0000e+000	
604.855	72.728	4.55E-04	1.00E-02	0	0.00000000e+000   0.0000e+000	
607.252	72.839	4.73E-04	1.00E-02	0	0.00000000e+000   0.0000e+000	
609.652	72.95	4.84E-04	1.00E-02	0	0.00000000e+000   0.0000e+000	
612.053	73.06	4.50E-04	1.00E-02	0	0.00000000e+000   0.0000e+000	
614.454	73.171	4.34E-04	1.00E-02	0	0.00000000e+000   0.0000e+000	
616.857	73.282	4.15E-04	1.00E-02	0	0.00000000e+000   0.0000e+000	
619.255	73.391	4.55E-04	1.00E-02	0	0.00000000e+000   0.0000e+000	
621.657	73.502	4.33E-04	1.00E-02	0	0.00000000e+000   0.0000e+000	
624.056	73.613	4.11E-04	1.00E-02	0	0.00000000e+000   0.0000e+000	
626.456	73.722	5.08E-04	1.00E-02	0	0.00000000e+000   0.0000e+000	
628.861	73.834	4.30E-04	1.00E-02	0	0.00000000e+000   0.0000e+000	
631.261	73.945	4.07E-04	1.00E-02	0	0.00000000e+000   0.0000e+000	
633.664	74.054	4.22E-04	1.00E-02	0	0.00000000e+000   0.0000e+000	
636.06	74.162	4.50E-04	1.00E-02	0	0.00000000e+000   0.0000e+000	
638.461	74.269	3.95E-04	1.00E-02	0	0.00000000e+000   0.0000e+000	
640.866	74.377	4.30E-04	1.00E-02	0	0.00000000e+000   0.0000e+000	
643.258	74.488	4.87E-04	1.00E-02	0	0.00000000e+000   0.0000e+000	
645.659	74.596	4.98E-04	1.00E-02	0	0.00000000e+000   0.0000e+000	
648.06	74.705	3.95E-04	1.00E-02	0	0.00000000e+000   0.0000e+000	
650.46	74.814	4.71E-04	1.00E-02	0	0.00000000e+000   0.0000e+000	
652.864	74.921	4.88E-04	1.00E-02	0	0.00000000e+000   0.0000e+000	
655.261	75.032	5.48E-04	1.00E-02	0	0.00000000e+000   0.0000e+000	
657.663	75.14	4.32E-04	1.00E-02	0	0.00000000e+000   0.0000e+000	
660.062	75.249	4.32E-04	1.00E-02	0	0.00000000e+000   0.0000e+000	
662.463	75.358	5.06E-04	1.00E-02	0	0.00000000e+000   0.0000e+000	
664.867	75.467	4.85E-04	1.00E-02	0	0.00000000e+000   0.0000e+000	
667.266	75.577	4.05E-04	1.00E-02	0	0.00000000e+000   0.0000e+000	
669.665	75.688	4.26E-04	1.00E-02	0	0.00000000e+000   0.0000e+000	
672.067	75.796	4.37E-04	1.00E-02	0	0.00000000e+000   0.0000e+000	
674.467	75.907	3.39E-04	1.00E-02	0	0.00000000e+000   0.0000e+000	
676.873	76.016	5.17E-04	1.00E-02	0	0.00000000e+000   0.0000e+000	
679.272	76.129	3.97E-04	1.00E-02	0	0.00000000e+000   0.0000e+000	
681.667	76.239	4.91E-04	1.00E-02	0	0.00000000e+000   0.0000e+000	
684.069	76.353	3.86E-04	1.00E-02	0	0.00000000e+000   0.0000e+000	
686.471	76.468	3.82E-04	1.00E-02	0	0.00000000e+000   0.0000e+000	
688.871	76.581	4.95E-04	1.00E-02	0	0.00000000e+000   0.0000e+000	
691.268	76.697	5.32E-04	1.00E-02	0	0.00000000e+000   0.0000e+000	
693.668	76.808	4.91E-04	1.00E-02	0	0.00000000e+000   0.0000e+000	
696.068	76.923	4.31E-04	1.00E-02	0	0.00000000e+000   0.0000e+000	
698.469	77.038	4.98E-04	1.00E-02	0	0.00000000e+000   0.0000e+000	
700.873	77.152	5.16E-04	1.00E-02	0	0.00000000e+000   0.0000e+000	
703.27	77.266	4.94E-04	1.00E-02	0	0.00000000e+000   0.0000e+000	
705.67	77.378	5.14E-04	1.00E-02	0	0.00000000e+000   0.0000e+000	
708.071	77.494	4.89E-04	1.00E-02	0	0.00000000e+000   0.0000e+000	
710.472	77.605	4.97E-04	1.00E-02	0	0.00000000e+000   0.0000e+000	
