Pixel	Wavelength(nm)	Wavenumber(1/cm)	Intensity(Counts)
1    	132.6255      	75400.2706    	3052    
2    	133.0654      	75151.0337    	3193    
3    	133.5053      	74903.4048    	3151    
4    	133.9452      	74657.3770    	3159    
5    	134.3853      	74412.9263    	3192    
6    	134.8253      	74170.0377    	3192    
7    	135.2655      	73928.7044    	3209    
8    	135.7056      	73688.9034    	3264    
9    	136.1459      	73450.6202    	3156    
10   	136.5862      	73213.8484    	3152    
11   	137.0265      	72978.5658    	3155    
12   	137.4669      	72744.7582    	3204    
13   	137.9074      	72512.4119    	3144    
14   	138.3479      	72281.5212    	3120    
15   	138.7885      	72052.0724    	3152    
16   	139.2292      	71824.0364    	3144    
17   	139.6698      	71597.4157    	3102    
18   	140.1106      	71372.1896    	3115    
19   	140.5514      	71148.3528    	3209    
20   	140.9922      	70925.8850    	3174    
21   	141.4332      	70704.7735    	3140    
22   	141.8741      	70485.0060    	3173    
23   	142.3152      	70266.5779    	3186    
24   	142.7562      	70049.4769    	3178    
25   	143.1974      	69833.6762    	3200    
26   	143.6386      	69619.1788    	3210    
27   	144.0798      	69405.9656    	3213    
28   	144.5211      	69194.0325    	3204    
29   	144.9625      	68983.3607    	3190    
30   	145.4039      	68773.9389    	3165    
31   	145.8454      	68565.7562    	3271    
32   	146.2869      	68358.8086    	3180    
33   	146.7285      	68153.0782    	3174    
34   	147.1702      	67948.5612    	3179    
35   	147.6118      	67745.2400    	3232    
36   	148.0536      	67543.1041    	3223    
37   	148.4954      	67342.1501    	3204    
38   	148.9373      	67142.3608    	3096    
39   	149.3792      	66943.7261    	3228    
40   	149.8212      	66746.2361    	3117    
41   	150.2632      	66549.8875    	3142    
42   	150.7053      	66354.6707    	3101    
43   	151.1474      	66160.5623    	3194    
44   	151.5896      	65967.5664    	3208    
45   	152.0319      	65775.6734    	3177    
46   	152.4742      	65584.8607    	3128    
47   	152.9166      	65395.1323    	3111    
48   	153.3590      	65206.4791    	3256    
49   	153.8015      	65018.8788    	3280    
50   	154.2440      	64832.3358    	3218    
51   	154.6866      	64646.8409    	3208    
52   	155.1293      	64462.3727    	3168    
53   	155.5719      	64278.9417    	3140    
54   	156.0147      	64096.5203    	3182    
55   	156.4575      	63915.1127    	3228    
56   	156.9004      	63734.7043    	3254    
57   	157.3433      	63555.2868    	3278    
58   	157.7863      	63376.8582    	3243    
59   	158.2293      	63199.4043    	3211    
60   	158.6724      	63022.9231    	3168    
61   	159.1156      	62847.4008    	3198    
62   	159.5588      	62672.8294    	3105    
63   	160.0020      	62499.2073    	3098    
64   	160.4453      	62326.5207    	3204    
65   	160.8887      	62154.7623    	3201    
66   	161.3321      	61983.9303    	3206    
67   	161.7756      	61814.0115    	3212    
68   	162.2192      	61644.9985    	3217    
69   	162.6628      	61476.8900    	3113    
70   	163.1064      	61309.6729    	3120    
71   	163.5501      	61143.3459    	3180    
72   	163.9939      	60977.8905    	3197    
73   	164.4377      	60813.3169    	3213    
74   	164.8815      	60649.6011    	3188    
75   	165.3255      	60486.7478    	3287    
76   	165.7695      	60324.7444    	3133    
77   	166.2135      	60163.5900    	3237    
78   	166.6576      	60003.2723    	3146    
79   	167.1017      	59843.7849    	3204    
80   	167.5459      	59685.1267    	3198    
81   	167.9902      	59527.2860    	3208    
82   	168.4345      	59370.2618    	3188    
83   	168.8789      	59214.0424    	3158    
84   	169.3233      	59058.6216    	3047    
85   	169.7678      	58903.9935    	3230    
86   	170.2123      	58750.1571    	3165    
87   	170.6569      	58597.1064    	3186    
88   	171.1015      	58444.8251    	3205    
89   	171.5462      	58293.3176    	3131    
90   	171.9910      	58142.5781    	3176    
91   	172.4358      	57992.5957    	3128    
92   	172.8807      	57843.3647    	3228    
93   	173.3256      	57694.8793    	3175    
94   	173.7706      	57547.1392    	3173    
95   	174.2156      	57400.1337    	3202    
96   	174.6607      	57253.8624    	3192    
97   	175.1059      	57108.3147    	3120    
98   	175.5510      	56963.4903    	3101    
99   	175.9963      	56819.3739    	3112    
100  	176.4416      	56675.9752    	3128    
101  	176.8870      	56533.2740    	3197    
102  	177.3324      	56391.2750    	3122    
103  	177.7779      	56249.9683    	3128    
104  	178.2234      	56109.3537    	3219    
105  	178.6690      	55969.4211    	3162    
106  	179.1146      	55830.1705    	3269    
107  	179.5603      	55691.5874    	3150    
108  	180.0061      	55553.6812    	3207    
109  	180.4519      	55416.4329    	3185    
110  	180.8978      	55279.8471    	3193    
111  	181.3437      	55143.9189    	3143    
112  	181.7896      	55008.6345    	3229    
113  	182.2357      	54873.9985    	3156    
114  	182.6817      	54740.0063    	3168    
115  	183.1279      	54606.6486    	3248    
116  	183.5741      	54473.9210    	3211    
117  	184.0203      	54341.8235    	3194    
118  	184.4666      	54210.3472    	3213    
119  	184.9130      	54079.4877    	3203    
120  	185.3594      	53949.2451    	3203    
121  	185.8059      	53819.6107    	3180    
122  	186.2524      	53690.5846    	3179    
123  	186.6990      	53562.1581    	3220    
124  	187.1456      	53434.3272    	3181    
125  	187.5923      	53307.0919    	3160    
126  	188.0390      	53180.4439    	3134    
127  	188.4858      	53054.3833    	3123    
128  	188.9327      	52928.9019    	3271    
129  	189.3796      	52803.9956    	3172    
130  	189.8266      	52679.6648    	3178    
131  	190.2736      	52555.9012    	3168    
132  	190.7207      	52432.7052    	3164    
133  	191.1678      	52310.0687    	3157    
134  	191.6150      	52187.9879    	3041    
135  	192.0622      	52066.4632    	3225    
136  	192.5095      	51945.4867    	3192    
137  	192.9568      	51825.0588    	3202    
138  	193.4043      	51705.1716    	3248    
139  	193.8517      	51585.8216    	3216    
140  	194.2992      	51467.0092    	3193    
141  	194.7468      	51348.7268    	3243    
142  	195.1944      	51230.9707    	3225    
143  	195.6421      	51113.7416    	3205    
144  	196.0898      	50997.0358    	3142    
145  	196.5376      	50880.8459    	3157    
146  	196.9855      	50765.1686    	3187    
147  	197.4334      	50650.0004    	3233    
148  	197.8813      	50535.3418    	3180    
149  	198.3293      	50421.1896    	3206    
150  	198.7774      	50307.5326    	3262    
151  	199.2255      	50194.3791    	3180    
152  	199.6737      	50081.7144    	3218    
153  	200.1219      	49969.5429    	3211    
154  	200.5702      	49857.8614    	3236    
155  	201.0185      	49746.6629    	3164    
156  	201.4669      	49635.9443    	3188    
157  	201.9153      	49525.7061    	3168    
158  	202.3638      	49415.9417    	3204    
159  	202.8124      	49306.6478    	3188    
160  	203.2610      	49197.8253    	3172    
161  	203.7097      	49089.4674    	3166    
162  	204.1584      	48981.5747    	3193    
163  	204.6072      	48874.1407    	3159    
164  	205.0560      	48767.1661    	3181    
165  	205.5049      	48660.6443    	3178    
166  	205.9538      	48554.5724    	3148    
167  	206.4028      	48448.9512    	3140    
168  	206.8519      	48343.7743    	3265    
169  	207.3010      	48239.0424    	3282    
170  	207.7501      	48134.7491    	3134    
171  	208.1993      	48030.8917    	3211    
172  	208.6486      	47927.4711    	3202    
173  	209.0979      	47824.4844    	3223    
174  	209.5473      	47721.9219    	3261    
175  	209.9967      	47619.7915    	3181    
176  	210.4462      	47518.0801    	3192    
177  	210.8958      	47416.7920    	3252    
178  	211.3453      	47315.9245    	3148    
179  	211.7950      	47215.4716    	3160    
180  	212.2447      	47115.4308    	3099    
181  	212.6944      	47015.8029    	3209    
182  	213.1443      	46916.5820    	3157    
183  	213.5941      	46817.7657    	3226    
184  	214.0441      	46719.3547    	3268    
185  	214.4940      	46621.3467    	3318    
186  	214.9440      	46523.7358    	3183    
187  	215.3941      	46426.5196    	3217    
188  	215.8443      	46329.6990    	3160    
189  	216.2945      	46233.2683    	3109    
190  	216.7447      	46137.2253    	3256    
191  	217.1950      	46041.5708    	3352    
192  	217.6454      	45946.3024    	3259    
193  	218.0958      	45851.4146    	3160    
194  	218.5462      	45756.9051    	3226    
195  	218.9968      	45662.7749    	3049    
196  	219.4473      	45569.0186    	3168    
197  	219.8980      	45475.6338    	3207    
198  	220.3487      	45382.6216    	3197    
199  	220.7994      	45289.9796    	3342    
200  	221.2502      	45197.7027    	3210    
201  	221.7010      	45105.7886    	3288    
202  	222.1519      	45014.2383    	3188    
203  	222.6029      	44923.0466    	3169    
204  	223.0539      	44832.2144    	3222    
205  	223.5050      	44741.7366    	3264    
206  	223.9561      	44651.6141    	3218    
207  	224.4072      	44561.8418    	3156    
208  	224.8585      	44472.4176    	3172    
209  	225.3098      	44383.3427    	3206    
210  	225.7611      	44294.6119    	3213    
211  	226.2125      	44206.2262    	3271    
212  	226.6639      	44118.1807    	3263    
213  	227.1154      	44030.4763    	3212    
214  	227.5670      	43943.1081    	3243    
215  	228.0186      	43856.0772    	3184    
216  	228.4702      	43769.3786    	3193    
217  	228.9220      	43683.0105    	3221    
218  	229.3737      	43596.9739    	3206    
219  	229.8255      	43511.2639    	3163    
220  	230.2774      	43425.8817    	3280    
221  	230.7294      	43340.8224    	3248    
222  	231.1813      	43256.0872    	3219    
223  	231.6334      	43171.6712    	3163    
224  	232.0855      	43087.5756    	3196    
225  	232.5376      	43003.7957    	3242    
226  	232.9898      	42920.3297    	3148    
227  	233.4421      	42837.1787    	3184    
228  	233.8944      	42754.3409    	3198    
229  	234.3468      	42671.8090    	3180    
230  	234.7992      	42589.5895    	3160    
231  	235.2516      	42507.6752    	3147    
232  	235.7042      	42426.0645    	3164    
233  	236.1568      	42344.7555    	3258    
234  	236.6094      	42263.7522    	3263    
235  	237.0621      	42183.0447    	3220    
236  	237.5148      	42102.6366    	3235    
237  	237.9676      	42022.5264    	3256    
238  	238.4205      	41942.7098    	3113    
239  	238.8734      	41863.1851    	3204    
240  	239.3263      	41783.9534    	3141    
241  	239.7793      	41705.0105    	3289    
242  	240.2324      	41626.3573    	3254    
243  	240.6855      	41547.9924    	3160    
244  	241.1387      	41469.9088    	3186    
245  	241.5919      	41392.1130    	3247    
246  	242.0452      	41314.5954    	3254    
247  	242.4986      	41237.3599    	3239    
248  	242.9519      	41160.4049    	3128    
249  	243.4054      	41083.7262    	3298    
250  	243.8589      	41007.3250    	3160    
251  	244.3124      	40931.1972    	3266    
252  	244.7660      	40855.3414    	3156    
253  	245.2197      	40779.7586    	3216    
254  	245.6734      	40704.4448    	3212    
255  	246.1272      	40629.4011    	3228    
256  	246.5810      	40554.6261    	3239    
257  	247.0349      	40480.1133    	3165    
258  	247.4888      	40405.8689    	3230    
259  	247.9428      	40331.8863    	3180    
260  	248.3968      	40258.1643    	3274    
261  	248.8509      	40184.7015    	3180    
262  	249.3051      	40111.5014    	3184    
263  	249.7593      	40038.5552    	3300    
264  	250.2135      	39965.8666    	3156    
265  	250.6678      	39893.4341    	3195    
266  	251.1222      	39821.2540    	3259    
267  	251.5766      	39749.3274    	3208    
268  	252.0311      	39677.6506    	3228    
269  	252.4856      	39606.2222    	3129    
270  	252.9402      	39535.0434    	3178    
271  	253.3948      	39464.1128    	3259    
272  	253.8495      	39393.4268    	3245    
273  	254.3042      	39322.9842    	3226    
274  	254.7590      	39252.7859    	3237    
275  	255.2138      	39182.8309    	3248    
276  	255.6687      	39113.1154    	3246    
277  	256.1237      	39043.6359    	3196    
278  	256.5787      	38974.4005    	3180    
279  	257.0337      	38905.4009    	3282    
280  	257.4889      	38836.6314    	3192    
281  	257.9440      	38768.1047    	3222    
282  	258.3992      	38699.8056    	3233    
283  	258.8545      	38631.7422    	3184    
284  	259.3098      	38563.9087    	3217    
285  	259.7652      	38496.3039    	3160    
286  	260.2206      	38428.9268    	3202    
287  	260.6761      	38361.7806    	3254    
288  	261.1317      	38294.8597    	3306    
289  	261.5872      	38228.1629    	3160    
290  	262.0429      	38161.6892    	3305    
291  	262.4986      	38095.4418    	3200    
292  	262.9544      	38029.4108    	3285    
293  	263.4102      	37963.6083    	3280    
294  	263.8660      	37898.0200    	3247    
295  	264.3220      	37832.6492    	3179    
296  	264.7779      	37767.4991    	3172    
297  	265.2339      	37702.5644    	3221    
298  	265.6900      	37637.8483    	3246    
299  	266.1461      	37573.3410    	3211    
300  	266.6023      	37509.0502    	3128    
301  	267.0586      	37444.9704    	3188    
302  	267.5148      	37381.1050    	3239    
303  	267.9712      	37317.4443    	3249    
304  	268.4276      	37253.9958    	3268    
305  	268.8840      	37190.7542    	3240    
306  	269.3405      	37127.7186    	3216    
307  	269.7971      	37064.8922    	3184    
308  	270.2537      	37002.2696    	3206    
309  	270.7104      	36939.8500    	3275    
310  	271.1671      	36877.6323    	3202    
311  	271.6238      	36815.6197    	3187    
312  	272.0807      	36753.8070    	3176    
313  	272.5375      	36692.1934    	3173    
314  	272.9945      	36630.7778    	3188    
315  	273.4514      	36569.5634    	3232    
316  	273.9085      	36508.5410    	3224    
317  	274.3656      	36447.7219    	3245    
318  	274.8227      	36387.0930    	3166    
319  	275.2799      	36326.6574    	3231    
320  	275.7372      	36266.4183    	3232    
321  	276.1945      	36206.3706    	3250    
322  	276.6518      	36146.5174    	3337    
323  	277.1093      	36086.8498    	3209    
324  	277.5667      	36027.3750    	3244    
325  	278.0242      	35968.0880    	3208    
326  	278.4818      	35908.9918    	3176    
327  	278.9394      	35850.0817    	3240    
328  	279.3971      	35791.3528    	3308    
329  	279.8548      	35732.8161    	3284    
330  	280.3126      	35674.4588    	3248    
331  	280.7704      	35616.2880    	3250    
332  	281.2283      	35558.2988    	3206    
333  	281.6862      	35500.4905    	3238    
334  	282.1443      	35442.8622    	3277    
335  	282.6023      	35385.4168    	3285    
336  	283.0604      	35328.1498    	3252    
337  	283.5186      	35271.0602    	3312    
338  	283.9767      	35214.1510    	3227    
339  	284.4350      	35157.4139    	3248    
340  	284.8933      	35100.8555    	3384    
341  	285.3517      	35044.4751    	3360    
342  	285.8101      	34988.2643    	3345    
343  	286.2686      	34932.2298    	3290    
344  	286.7271      	34876.3671    	3323    
345  	287.1857      	34820.6753    	3400    
346  	287.6443      	34765.1575    	3406    
347  	288.1030      	34709.8090    	3338    
348  	288.5617      	34654.6292    	3366    
349  	289.0205      	34599.6172    	3390    
350  	289.4794      	34544.7760    	3392    
351  	289.9383      	34490.1011    	3426    
352  	290.3972      	34435.5917    	3400    
353  	290.8562      	34381.2472    	3430    
354  	291.3153      	34327.0703    	3489    
355  	291.7744      	34273.0567    	3518    
356  	292.2336      	34219.2057    	3416    
357  	292.6927      	34165.5201    	3493    
358  	293.1520      	34111.9956    	3479    
359  	293.6113      	34058.6314    	3492    
360  	294.0707      	34005.4269    	3513    
361  	294.5302      	33952.3813    	3453    
362  	294.9896      	33899.4974    	3483    
363  	295.4492      	33846.7711    	3502    
364  	295.9087      	33794.2050    	3460    
365  	296.3684      	33741.7915    	3476    
366  	296.8281      	33689.5369    	3391    
367  	297.2878      	33637.4369    	3474    
368  	297.7476      	33585.4944    	3431    
369  	298.2075      	33533.7018    	3397    
370  	298.6674      	33482.0653    	3389    
371  	299.1273      	33430.5841    	3392    
372  	299.5873      	33379.2509    	3340    
373  	300.0474      	33328.0716    	3384    
374  	300.5075      	33277.0422    	3464    
375  	300.9677      	33226.1622    	3482    
376  	301.4279      	33175.4341    	3355    
377  	301.8881      	33124.8541    	3344    
378  	302.3484      	33074.4213    	3311    
379  	302.8088      	33024.1352    	3454    
380  	303.2693      	32973.9985    	3409    
381  	303.7297      	32924.0071    	3308    
382  	304.1903      	32874.1605    	3276    
383  	304.6508      	32824.4614    	3262    
384  	305.1115      	32774.9024    	3377    
385  	305.5722      	32725.4896    	3290    
386  	306.0329      	32676.2223    	3369    
387  	306.4937      	32627.0934    	3308    
388  	306.9546      	32578.1087    	3328    
389  	307.4155      	32529.2645    	3319    
390  	307.8764      	32480.5633    	3321    
391  	308.3375      	32431.9980    	3241    
392  	308.7985      	32383.5746    	3311    
393  	309.2596      	32335.2924    	3291    
394  	309.7208      	32287.1443    	3320    
395  	310.1820      	32239.1363    	3428    
396  	310.6433      	32191.2645    	3312    
397  	311.1046      	32143.5284    	3299    
398  	311.5660      	32095.9305    	3325    
399  	312.0274      	32048.4670    	3264    
400  	312.4889      	32001.1375    	3233    
401  	312.9504      	31953.9445    	3284    
402  	313.4120      	31906.8811    	3300    
403  	313.8737      	31859.9531    	3278    
404  	314.3353      	31813.1598    	3226    
405  	314.7971      	31766.4945    	3360    
406  	315.2589      	31719.9629    	3276    
407  	315.7207      	31673.5613    	3294    
408  	316.1826      	31627.2921    	3215    
409  	316.6446      	31581.1488    	3354    
410  	317.1066      	31535.1370    	3323    
411  	317.5686      	31489.2560    	3263    
412  	318.0308      	31443.4992    	3308    
413  	318.4929      	31397.8722    	3372    
414  	318.9551      	31352.3715    	3276    
415  	319.4174      	31306.9964    	3362    
416  	319.8797      	31261.7495    	3305    
417  	320.3421      	31216.6273    	3305    
418  	320.8045      	31171.6292    	3272    
419  	321.2670      	31126.7577    	3314    
420  	321.7295      	31082.0092    	3370    
421  	322.1921      	31037.3834    	3346    
422  	322.6548      	30992.8797    	3294    
423  	323.1174      	30948.5005    	3205    
424  	323.5802      	30904.2424    	3275    
425  	324.0430      	30860.1049    	3326    
426  	324.5058      	30816.0903    	3335    
427  	324.9687      	30772.1925    	3320    
428  	325.4317      	30728.4167    	3247    
429  	325.8947      	30684.7624    	3315    
430  	326.3577      	30641.2262    	3236    
431  	326.8208      	30597.8077    	3263    
432  	327.2840      	30554.5063    	3261    
433  	327.7472      	30511.3216    	3259    
