Pixel	Wavelength(nm)	Wavenumber(1/cm)	Intensity(Counts)
1    	132.6255      	75400.2706    	2710    
2    	133.0654      	75151.0337    	2796    
3    	133.5053      	74903.4048    	2660    
4    	133.9452      	74657.3770    	2686    
5    	134.3853      	74412.9263    	2741    
6    	134.8253      	74170.0377    	2723    
7    	135.2655      	73928.7044    	2720    
8    	135.7056      	73688.9034    	2733    
9    	136.1459      	73450.6202    	2704    
10   	136.5862      	73213.8484    	2715    
11   	137.0265      	72978.5658    	2710    
12   	137.4669      	72744.7582    	2643    
13   	137.9074      	72512.4119    	2613    
14   	138.3479      	72281.5212    	2634    
15   	138.7885      	72052.0724    	2692    
16   	139.2292      	71824.0364    	2653    
17   	139.6698      	71597.4157    	2734    
18   	140.1106      	71372.1896    	2672    
19   	140.5514      	71148.3528    	2669    
20   	140.9922      	70925.8850    	2706    
21   	141.4332      	70704.7735    	2670    
22   	141.8741      	70485.0060    	2636    
23   	142.3152      	70266.5779    	2671    
24   	142.7562      	70049.4769    	2708    
25   	143.1974      	69833.6762    	2703    
26   	143.6386      	69619.1788    	2780    
27   	144.0798      	69405.9656    	2645    
28   	144.5211      	69194.0325    	2703    
29   	144.9625      	68983.3607    	2671    
30   	145.4039      	68773.9389    	2651    
31   	145.8454      	68565.7562    	2680    
32   	146.2869      	68358.8086    	2673    
33   	146.7285      	68153.0782    	2689    
34   	147.1702      	67948.5612    	2674    
35   	147.6118      	67745.2400    	2725    
36   	148.0536      	67543.1041    	2671    
37   	148.4954      	67342.1501    	2648    
38   	148.9373      	67142.3608    	2686    
39   	149.3792      	66943.7261    	2653    
40   	149.8212      	66746.2361    	2700    
41   	150.2632      	66549.8875    	2685    
42   	150.7053      	66354.6707    	2642    
43   	151.1474      	66160.5623    	2727    
44   	151.5896      	65967.5664    	2651    
45   	152.0319      	65775.6734    	2751    
46   	152.4742      	65584.8607    	2667    
47   	152.9166      	65395.1323    	2735    
48   	153.3590      	65206.4791    	2685    
49   	153.8015      	65018.8788    	2697    
50   	154.2440      	64832.3358    	2732    
51   	154.6866      	64646.8409    	2706    
52   	155.1293      	64462.3727    	2668    
53   	155.5719      	64278.9417    	2677    
54   	156.0147      	64096.5203    	2688    
55   	156.4575      	63915.1127    	2600    
56   	156.9004      	63734.7043    	2740    
57   	157.3433      	63555.2868    	2764    
58   	157.7863      	63376.8582    	2727    
59   	158.2293      	63199.4043    	2658    
60   	158.6724      	63022.9231    	2666    
61   	159.1156      	62847.4008    	2671    
62   	159.5588      	62672.8294    	2752    
63   	160.0020      	62499.2073    	2711    
64   	160.4453      	62326.5207    	2709    
65   	160.8887      	62154.7623    	2704    
66   	161.3321      	61983.9303    	2687    
67   	161.7756      	61814.0115    	2729    
68   	162.2192      	61644.9985    	2716    
69   	162.6628      	61476.8900    	2701    
70   	163.1064      	61309.6729    	2671    
71   	163.5501      	61143.3459    	2699    
72   	163.9939      	60977.8905    	2671    
73   	164.4377      	60813.3169    	2657    
74   	164.8815      	60649.6011    	2708    
75   	165.3255      	60486.7478    	2696    
76   	165.7695      	60324.7444    	2755    
77   	166.2135      	60163.5900    	2719    
78   	166.6576      	60003.2723    	2703    
79   	167.1017      	59843.7849    	2734    
80   	167.5459      	59685.1267    	2745    
81   	167.9902      	59527.2860    	2742    
82   	168.4345      	59370.2618    	2698    
83   	168.8789      	59214.0424    	2670    
84   	169.3233      	59058.6216    	2665    
85   	169.7678      	58903.9935    	2687    
86   	170.2123      	58750.1571    	2630    
87   	170.6569      	58597.1064    	2637    
88   	171.1015      	58444.8251    	2682    
89   	171.5462      	58293.3176    	2697    
90   	171.9910      	58142.5781    	2677    
91   	172.4358      	57992.5957    	2648    
92   	172.8807      	57843.3647    	2649    
93   	173.3256      	57694.8793    	2671    
94   	173.7706      	57547.1392    	2642    
95   	174.2156      	57400.1337    	2654    
96   	174.6607      	57253.8624    	2657    
97   	175.1059      	57108.3147    	2644    
98   	175.5510      	56963.4903    	2673    
99   	175.9963      	56819.3739    	2743    
100  	176.4416      	56675.9752    	2639    
101  	176.8870      	56533.2740    	2700    
102  	177.3324      	56391.2750    	2692    
103  	177.7779      	56249.9683    	2625    
104  	178.2234      	56109.3537    	2683    
105  	178.6690      	55969.4211    	2721    
106  	179.1146      	55830.1705    	2671    
107  	179.5603      	55691.5874    	2740    
108  	180.0061      	55553.6812    	2729    
109  	180.4519      	55416.4329    	2674    
110  	180.8978      	55279.8471    	2695    
111  	181.3437      	55143.9189    	2735    
112  	181.7896      	55008.6345    	2712    
113  	182.2357      	54873.9985    	2701    
114  	182.6817      	54740.0063    	2719    
115  	183.1279      	54606.6486    	2730    
116  	183.5741      	54473.9210    	2695    
117  	184.0203      	54341.8235    	2702    
118  	184.4666      	54210.3472    	2685    
119  	184.9130      	54079.4877    	2706    
120  	185.3594      	53949.2451    	2685    
121  	185.8059      	53819.6107    	2734    
122  	186.2524      	53690.5846    	2767    
123  	186.6990      	53562.1581    	2734    
124  	187.1456      	53434.3272    	2712    
125  	187.5923      	53307.0919    	2665    
126  	188.0390      	53180.4439    	2681    
127  	188.4858      	53054.3833    	2653    
128  	188.9327      	52928.9019    	2669    
129  	189.3796      	52803.9956    	2671    
130  	189.8266      	52679.6648    	2695    
131  	190.2736      	52555.9012    	2683    
132  	190.7207      	52432.7052    	2668    
133  	191.1678      	52310.0687    	2717    
134  	191.6150      	52187.9879    	2670    
135  	192.0622      	52066.4632    	2732    
136  	192.5095      	51945.4867    	2679    
137  	192.9568      	51825.0588    	2730    
138  	193.4043      	51705.1716    	2808    
139  	193.8517      	51585.8216    	2642    
140  	194.2992      	51467.0092    	2627    
141  	194.7468      	51348.7268    	2649    
142  	195.1944      	51230.9707    	2695    
143  	195.6421      	51113.7416    	2656    
144  	196.0898      	50997.0358    	2713    
145  	196.5376      	50880.8459    	2661    
146  	196.9855      	50765.1686    	2739    
147  	197.4334      	50650.0004    	2722    
148  	197.8813      	50535.3418    	2674    
149  	198.3293      	50421.1896    	2696    
150  	198.7774      	50307.5326    	2655    
151  	199.2255      	50194.3791    	2713    
152  	199.6737      	50081.7144    	2685    
153  	200.1219      	49969.5429    	2700    
154  	200.5702      	49857.8614    	2728    
155  	201.0185      	49746.6629    	2725    
156  	201.4669      	49635.9443    	2651    
157  	201.9153      	49525.7061    	2738    
158  	202.3638      	49415.9417    	2696    
159  	202.8124      	49306.6478    	2711    
160  	203.2610      	49197.8253    	2685    
161  	203.7097      	49089.4674    	2705    
162  	204.1584      	48981.5747    	2711    
163  	204.6072      	48874.1407    	2640    
164  	205.0560      	48767.1661    	2698    
165  	205.5049      	48660.6443    	2707    
166  	205.9538      	48554.5724    	2642    
167  	206.4028      	48448.9512    	2763    
168  	206.8519      	48343.7743    	2661    
169  	207.3010      	48239.0424    	2661    
170  	207.7501      	48134.7491    	2691    
171  	208.1993      	48030.8917    	2698    
172  	208.6486      	47927.4711    	2745    
173  	209.0979      	47824.4844    	2719    
174  	209.5473      	47721.9219    	2687    
175  	209.9967      	47619.7915    	2639    
176  	210.4462      	47518.0801    	2683    
177  	210.8958      	47416.7920    	2716    
178  	211.3453      	47315.9245    	2727    
179  	211.7950      	47215.4716    	2643    
180  	212.2447      	47115.4308    	2710    
181  	212.6944      	47015.8029    	2723    
182  	213.1443      	46916.5820    	2715    
183  	213.5941      	46817.7657    	2705    
184  	214.0441      	46719.3547    	2726    
185  	214.4940      	46621.3467    	2671    
186  	214.9440      	46523.7358    	2736    
187  	215.3941      	46426.5196    	2714    
188  	215.8443      	46329.6990    	2671    
189  	216.2945      	46233.2683    	2700    
190  	216.7447      	46137.2253    	2731    
191  	217.1950      	46041.5708    	2708    
192  	217.6454      	45946.3024    	2703    
193  	218.0958      	45851.4146    	2730    
194  	218.5462      	45756.9051    	2662    
195  	218.9968      	45662.7749    	2733    
196  	219.4473      	45569.0186    	2698    
197  	219.8980      	45475.6338    	2681    
198  	220.3487      	45382.6216    	2710    
199  	220.7994      	45289.9796    	2771    
200  	221.2502      	45197.7027    	2724    
201  	221.7010      	45105.7886    	2669    
202  	222.1519      	45014.2383    	2650    
203  	222.6029      	44923.0466    	2699    
204  	223.0539      	44832.2144    	2696    
205  	223.5050      	44741.7366    	2640    
206  	223.9561      	44651.6141    	2648    
207  	224.4072      	44561.8418    	2669    
208  	224.8585      	44472.4176    	2667    
209  	225.3098      	44383.3427    	2680    
210  	225.7611      	44294.6119    	2656    
211  	226.2125      	44206.2262    	2755    
212  	226.6639      	44118.1807    	2711    
213  	227.1154      	44030.4763    	2605    
214  	227.5670      	43943.1081    	2694    
215  	228.0186      	43856.0772    	2703    
216  	228.4702      	43769.3786    	2685    
217  	228.9220      	43683.0105    	2640    
218  	229.3737      	43596.9739    	2729    
219  	229.8255      	43511.2639    	2656    
220  	230.2774      	43425.8817    	2735    
221  	230.7294      	43340.8224    	2730    
222  	231.1813      	43256.0872    	2729    
223  	231.6334      	43171.6712    	2739    
224  	232.0855      	43087.5756    	2647    
225  	232.5376      	43003.7957    	2705    
226  	232.9898      	42920.3297    	2777    
227  	233.4421      	42837.1787    	2669    
228  	233.8944      	42754.3409    	2666    
229  	234.3468      	42671.8090    	2699    
230  	234.7992      	42589.5895    	2713    
231  	235.2516      	42507.6752    	2698    
232  	235.7042      	42426.0645    	2719    
233  	236.1568      	42344.7555    	2729    
234  	236.6094      	42263.7522    	2674    
235  	237.0621      	42183.0447    	2686    
236  	237.5148      	42102.6366    	2657    
237  	237.9676      	42022.5264    	2697    
238  	238.4205      	41942.7098    	2734    
239  	238.8734      	41863.1851    	2709    
240  	239.3263      	41783.9534    	2734    
241  	239.7793      	41705.0105    	2685    
242  	240.2324      	41626.3573    	2686    
243  	240.6855      	41547.9924    	2755    
244  	241.1387      	41469.9088    	2671    
245  	241.5919      	41392.1130    	2701    
246  	242.0452      	41314.5954    	2692    
247  	242.4986      	41237.3599    	2751    
248  	242.9519      	41160.4049    	2721    
249  	243.4054      	41083.7262    	2656    
250  	243.8589      	41007.3250    	2645    
251  	244.3124      	40931.1972    	2707    
252  	244.7660      	40855.3414    	2706    
253  	245.2197      	40779.7586    	2700    
254  	245.6734      	40704.4448    	2707    
255  	246.1272      	40629.4011    	2674    
256  	246.5810      	40554.6261    	2703    
257  	247.0349      	40480.1133    	2675    
258  	247.4888      	40405.8689    	2688    
259  	247.9428      	40331.8863    	2661    
260  	248.3968      	40258.1643    	2665    
261  	248.8509      	40184.7015    	2723    
262  	249.3051      	40111.5014    	2727    
263  	249.7593      	40038.5552    	2706    
264  	250.2135      	39965.8666    	2689    
265  	250.6678      	39893.4341    	2696    
266  	251.1222      	39821.2540    	2681    
267  	251.5766      	39749.3274    	2703    
268  	252.0311      	39677.6506    	2738    
269  	252.4856      	39606.2222    	2714    
270  	252.9402      	39535.0434    	2748    
271  	253.3948      	39464.1128    	2689    
272  	253.8495      	39393.4268    	2617    
273  	254.3042      	39322.9842    	2671    
274  	254.7590      	39252.7859    	2686    
275  	255.2138      	39182.8309    	2637    
276  	255.6687      	39113.1154    	2736    
277  	256.1237      	39043.6359    	2702    
278  	256.5787      	38974.4005    	2729    
279  	257.0337      	38905.4009    	2792    
280  	257.4889      	38836.6314    	2739    
281  	257.9440      	38768.1047    	2730    
282  	258.3992      	38699.8056    	2715    
283  	258.8545      	38631.7422    	2757    
284  	259.3098      	38563.9087    	2649    
285  	259.7652      	38496.3039    	2732    
286  	260.2206      	38428.9268    	2766    
287  	260.6761      	38361.7806    	2745    
288  	261.1317      	38294.8597    	2668    
289  	261.5872      	38228.1629    	2702    
290  	262.0429      	38161.6892    	2689    
291  	262.4986      	38095.4418    	2714    
292  	262.9544      	38029.4108    	2732    
293  	263.4102      	37963.6083    	2686    
294  	263.8660      	37898.0200    	2741    
295  	264.3220      	37832.6492    	2694    
296  	264.7779      	37767.4991    	2725    
297  	265.2339      	37702.5644    	2703    
298  	265.6900      	37637.8483    	2654    
299  	266.1461      	37573.3410    	2678    
300  	266.6023      	37509.0502    	2657    
301  	267.0586      	37444.9704    	2685    
302  	267.5148      	37381.1050    	2693    
303  	267.9712      	37317.4443    	2687    
304  	268.4276      	37253.9958    	2723    
305  	268.8840      	37190.7542    	2658    
306  	269.3405      	37127.7186    	2728    
307  	269.7971      	37064.8922    	2720    
308  	270.2537      	37002.2696    	2706    
309  	270.7104      	36939.8500    	2721    
310  	271.1671      	36877.6323    	2715    
311  	271.6238      	36815.6197    	2663    
312  	272.0807      	36753.8070    	2746    
313  	272.5375      	36692.1934    	2723    
314  	272.9945      	36630.7778    	2673    
315  	273.4514      	36569.5634    	2708    
316  	273.9085      	36508.5410    	2752    
317  	274.3656      	36447.7219    	2706    
318  	274.8227      	36387.0930    	2822    
319  	275.2799      	36326.6574    	2700    
320  	275.7372      	36266.4183    	2722    
321  	276.1945      	36206.3706    	2738    
322  	276.6518      	36146.5174    	2719    
323  	277.1093      	36086.8498    	2667    
324  	277.5667      	36027.3750    	2683    
325  	278.0242      	35968.0880    	2674    
326  	278.4818      	35908.9918    	2644    
327  	278.9394      	35850.0817    	2684    
328  	279.3971      	35791.3528    	2607    
329  	279.8548      	35732.8161    	2738    
330  	280.3126      	35674.4588    	2709    
331  	280.7704      	35616.2880    	2698    
332  	281.2283      	35558.2988    	2628    
333  	281.6862      	35500.4905    	2695    
334  	282.1443      	35442.8622    	2744    
335  	282.6023      	35385.4168    	2681    
336  	283.0604      	35328.1498    	2702    
337  	283.5186      	35271.0602    	2670    
338  	283.9767      	35214.1510    	2762    
339  	284.4350      	35157.4139    	2696    
340  	284.8933      	35100.8555    	2751    
341  	285.3517      	35044.4751    	2737    
342  	285.8101      	34988.2643    	2654    
343  	286.2686      	34932.2298    	2674    
344  	286.7271      	34876.3671    	2699    
345  	287.1857      	34820.6753    	2674    
346  	287.6443      	34765.1575    	2695    
347  	288.1030      	34709.8090    	2657    
348  	288.5617      	34654.6292    	2744    
349  	289.0205      	34599.6172    	2713    
350  	289.4794      	34544.7760    	2719    
351  	289.9383      	34490.1011    	2671    
352  	290.3972      	34435.5917    	2730    
353  	290.8562      	34381.2472    	2636    
354  	291.3153      	34327.0703    	2792    
355  	291.7744      	34273.0567    	2640    
356  	292.2336      	34219.2057    	2683    
357  	292.6927      	34165.5201    	2724    
358  	293.1520      	34111.9956    	2611    
359  	293.6113      	34058.6314    	2672    
360  	294.0707      	34005.4269    	2693    
361  	294.5302      	33952.3813    	2742    
362  	294.9896      	33899.4974    	2700    
363  	295.4492      	33846.7711    	2742    
364  	295.9087      	33794.2050    	2718    
365  	296.3684      	33741.7915    	2724    
366  	296.8281      	33689.5369    	2767    
367  	297.2878      	33637.4369    	2688    
368  	297.7476      	33585.4944    	2725    
369  	298.2075      	33533.7018    	2692    
370  	298.6674      	33482.0653    	2670    
371  	299.1273      	33430.5841    	2735    
372  	299.5873      	33379.2509    	2731    
373  	300.0474      	33328.0716    	2660    
374  	300.5075      	33277.0422    	2609    
375  	300.9677      	33226.1622    	2751    
376  	301.4279      	33175.4341    	2683    
377  	301.8881      	33124.8541    	2635    
378  	302.3484      	33074.4213    	2652    
379  	302.8088      	33024.1352    	2719    
380  	303.2693      	32973.9985    	2735    
381  	303.7297      	32924.0071    	2740    
382  	304.1903      	32874.1605    	2745    
383  	304.6508      	32824.4614    	2738    
384  	305.1115      	32774.9024    	2686    
385  	305.5722      	32725.4896    	2618    
386  	306.0329      	32676.2223    	2621    
387  	306.4937      	32627.0934    	2701    
388  	306.9546      	32578.1087    	2755    
389  	307.4155      	32529.2645    	2688    
390  	307.8764      	32480.5633    	2730    
391  	308.3375      	32431.9980    	2801    
392  	308.7985      	32383.5746    	2666    
393  	309.2596      	32335.2924    	2784    
394  	309.7208      	32287.1443    	2678    
395  	310.1820      	32239.1363    	2642    
396  	310.6433      	32191.2645    	2711    
397  	311.1046      	32143.5284    	2735    
398  	311.5660      	32095.9305    	2717    
399  	312.0274      	32048.4670    	2697    
400  	312.4889      	32001.1375    	2773    
401  	312.9504      	31953.9445    	2653    
402  	313.4120      	31906.8811    	2678    
403  	313.8737      	31859.9531    	2674    
404  	314.3353      	31813.1598    	2690    
405  	314.7971      	31766.4945    	2673    
406  	315.2589      	31719.9629    	2686    
407  	315.7207      	31673.5613    	2710    
408  	316.1826      	31627.2921    	2705    
409  	316.6446      	31581.1488    	2643    
410  	317.1066      	31535.1370    	2695    
411  	317.5686      	31489.2560    	2673    
412  	318.0308      	31443.4992    	2618    
413  	318.4929      	31397.8722    	2738    
414  	318.9551      	31352.3715    	2696    
415  	319.4174      	31306.9964    	2709    
416  	319.8797      	31261.7495    	2723    
417  	320.3421      	31216.6273    	2720    
418  	320.8045      	31171.6292    	2633    
419  	321.2670      	31126.7577    	2672    
420  	321.7295      	31082.0092    	2774    
421  	322.1921      	31037.3834    	2730    
422  	322.6548      	30992.8797    	2653    
423  	323.1174      	30948.5005    	2708    
424  	323.5802      	30904.2424    	2678    
425  	324.0430      	30860.1049    	2725    
426  	324.5058      	30816.0903    	2721    
427  	324.9687      	30772.1925    	2657    
428  	325.4317      	30728.4167    	2579    
429  	325.8947      	30684.7624    	2727    
430  	326.3577      	30641.2262    	2739    
431  	326.8208      	30597.8077    	2747    
432  	327.2840      	30554.5063    	2726    
433  	327.7472      	30511.3216    	2687    
