Pixel	Wavelength(nm)	Wavenumber(1/cm)	Intensity(Counts)
1    	132.6255      	75400.2706    	2729    
2    	133.0654      	75151.0337    	2808    
3    	133.5053      	74903.4048    	2832    
4    	133.9452      	74657.3770    	2745    
5    	134.3853      	74412.9263    	2833    
6    	134.8253      	74170.0377    	2829    
7    	135.2655      	73928.7044    	2738    
8    	135.7056      	73688.9034    	2760    
9    	136.1459      	73450.6202    	2795    
10   	136.5862      	73213.8484    	2754    
11   	137.0265      	72978.5658    	2806    
12   	137.4669      	72744.7582    	2863    
13   	137.9074      	72512.4119    	2872    
14   	138.3479      	72281.5212    	2784    
15   	138.7885      	72052.0724    	2841    
16   	139.2292      	71824.0364    	2739    
17   	139.6698      	71597.4157    	2781    
18   	140.1106      	71372.1896    	2876    
19   	140.5514      	71148.3528    	2816    
20   	140.9922      	70925.8850    	2766    
21   	141.4332      	70704.7735    	2837    
22   	141.8741      	70485.0060    	2779    
23   	142.3152      	70266.5779    	2820    
24   	142.7562      	70049.4769    	2819    
25   	143.1974      	69833.6762    	2872    
26   	143.6386      	69619.1788    	2800    
27   	144.0798      	69405.9656    	2839    
28   	144.5211      	69194.0325    	2796    
29   	144.9625      	68983.3607    	2817    
30   	145.4039      	68773.9389    	2856    
31   	145.8454      	68565.7562    	2830    
32   	146.2869      	68358.8086    	2825    
33   	146.7285      	68153.0782    	2865    
34   	147.1702      	67948.5612    	2848    
35   	147.6118      	67745.2400    	2923    
36   	148.0536      	67543.1041    	2915    
37   	148.4954      	67342.1501    	2848    
38   	148.9373      	67142.3608    	2869    
39   	149.3792      	66943.7261    	2856    
40   	149.8212      	66746.2361    	2783    
41   	150.2632      	66549.8875    	2774    
42   	150.7053      	66354.6707    	2816    
43   	151.1474      	66160.5623    	2876    
44   	151.5896      	65967.5664    	2893    
45   	152.0319      	65775.6734    	2788    
46   	152.4742      	65584.8607    	2871    
47   	152.9166      	65395.1323    	2912    
48   	153.3590      	65206.4791    	2859    
49   	153.8015      	65018.8788    	2835    
50   	154.2440      	64832.3358    	2738    
51   	154.6866      	64646.8409    	2844    
52   	155.1293      	64462.3727    	2851    
53   	155.5719      	64278.9417    	2830    
54   	156.0147      	64096.5203    	2816    
55   	156.4575      	63915.1127    	2801    
56   	156.9004      	63734.7043    	2937    
57   	157.3433      	63555.2868    	2804    
58   	157.7863      	63376.8582    	2830    
59   	158.2293      	63199.4043    	2846    
60   	158.6724      	63022.9231    	2798    
61   	159.1156      	62847.4008    	2760    
62   	159.5588      	62672.8294    	2851    
63   	160.0020      	62499.2073    	2805    
64   	160.4453      	62326.5207    	2855    
65   	160.8887      	62154.7623    	2759    
66   	161.3321      	61983.9303    	2820    
67   	161.7756      	61814.0115    	2832    
68   	162.2192      	61644.9985    	2836    
69   	162.6628      	61476.8900    	2837    
70   	163.1064      	61309.6729    	2866    
71   	163.5501      	61143.3459    	2846    
72   	163.9939      	60977.8905    	2872    
73   	164.4377      	60813.3169    	2785    
74   	164.8815      	60649.6011    	2849    
75   	165.3255      	60486.7478    	2820    
76   	165.7695      	60324.7444    	2816    
77   	166.2135      	60163.5900    	2802    
78   	166.6576      	60003.2723    	2793    
79   	167.1017      	59843.7849    	2785    
80   	167.5459      	59685.1267    	2815    
81   	167.9902      	59527.2860    	2862    
82   	168.4345      	59370.2618    	2830    
83   	168.8789      	59214.0424    	2832    
84   	169.3233      	59058.6216    	2784    
85   	169.7678      	58903.9935    	2770    
86   	170.2123      	58750.1571    	2792    
87   	170.6569      	58597.1064    	2733    
88   	171.1015      	58444.8251    	2806    
89   	171.5462      	58293.3176    	2813    
90   	171.9910      	58142.5781    	2816    
91   	172.4358      	57992.5957    	2814    
92   	172.8807      	57843.3647    	2835    
93   	173.3256      	57694.8793    	2824    
94   	173.7706      	57547.1392    	2807    
95   	174.2156      	57400.1337    	2883    
96   	174.6607      	57253.8624    	2872    
97   	175.1059      	57108.3147    	2802    
98   	175.5510      	56963.4903    	2905    
99   	175.9963      	56819.3739    	2824    
100  	176.4416      	56675.9752    	2825    
101  	176.8870      	56533.2740    	2846    
102  	177.3324      	56391.2750    	2872    
103  	177.7779      	56249.9683    	2849    
104  	178.2234      	56109.3537    	2786    
105  	178.6690      	55969.4211    	2887    
106  	179.1146      	55830.1705    	2821    
107  	179.5603      	55691.5874    	2759    
108  	180.0061      	55553.6812    	2825    
109  	180.4519      	55416.4329    	2824    
110  	180.8978      	55279.8471    	2832    
111  	181.3437      	55143.9189    	2848    
112  	181.7896      	55008.6345    	2832    
113  	182.2357      	54873.9985    	2857    
114  	182.6817      	54740.0063    	2808    
115  	183.1279      	54606.6486    	2813    
116  	183.5741      	54473.9210    	2793    
117  	184.0203      	54341.8235    	2840    
118  	184.4666      	54210.3472    	2821    
119  	184.9130      	54079.4877    	2824    
120  	185.3594      	53949.2451    	2793    
121  	185.8059      	53819.6107    	2820    
122  	186.2524      	53690.5846    	2805    
123  	186.6990      	53562.1581    	2840    
124  	187.1456      	53434.3272    	2866    
125  	187.5923      	53307.0919    	2918    
126  	188.0390      	53180.4439    	2794    
127  	188.4858      	53054.3833    	2826    
128  	188.9327      	52928.9019    	2832    
129  	189.3796      	52803.9956    	2812    
130  	189.8266      	52679.6648    	2808    
131  	190.2736      	52555.9012    	2854    
132  	190.7207      	52432.7052    	2904    
133  	191.1678      	52310.0687    	2804    
134  	191.6150      	52187.9879    	2775    
135  	192.0622      	52066.4632    	2830    
136  	192.5095      	51945.4867    	2828    
137  	192.9568      	51825.0588    	2815    
138  	193.4043      	51705.1716    	2858    
139  	193.8517      	51585.8216    	2889    
140  	194.2992      	51467.0092    	2817    
141  	194.7468      	51348.7268    	2792    
142  	195.1944      	51230.9707    	2848    
143  	195.6421      	51113.7416    	2839    
144  	196.0898      	50997.0358    	2826    
145  	196.5376      	50880.8459    	2753    
146  	196.9855      	50765.1686    	2795    
147  	197.4334      	50650.0004    	2784    
148  	197.8813      	50535.3418    	2768    
149  	198.3293      	50421.1896    	2900    
150  	198.7774      	50307.5326    	2856    
151  	199.2255      	50194.3791    	2820    
152  	199.6737      	50081.7144    	2846    
153  	200.1219      	49969.5429    	2883    
154  	200.5702      	49857.8614    	2799    
155  	201.0185      	49746.6629    	2777    
156  	201.4669      	49635.9443    	2823    
157  	201.9153      	49525.7061    	2862    
158  	202.3638      	49415.9417    	2918    
159  	202.8124      	49306.6478    	2834    
160  	203.2610      	49197.8253    	2790    
161  	203.7097      	49089.4674    	2864    
162  	204.1584      	48981.5747    	2864    
163  	204.6072      	48874.1407    	2852    
164  	205.0560      	48767.1661    	2864    
165  	205.5049      	48660.6443    	2780    
166  	205.9538      	48554.5724    	2793    
167  	206.4028      	48448.9512    	2834    
168  	206.8519      	48343.7743    	2779    
169  	207.3010      	48239.0424    	2776    
170  	207.7501      	48134.7491    	2797    
171  	208.1993      	48030.8917    	2824    
172  	208.6486      	47927.4711    	2857    
173  	209.0979      	47824.4844    	2825    
174  	209.5473      	47721.9219    	2872    
175  	209.9967      	47619.7915    	2850    
176  	210.4462      	47518.0801    	2800    
177  	210.8958      	47416.7920    	2852    
178  	211.3453      	47315.9245    	2798    
179  	211.7950      	47215.4716    	2864    
180  	212.2447      	47115.4308    	2809    
181  	212.6944      	47015.8029    	2857    
182  	213.1443      	46916.5820    	2861    
183  	213.5941      	46817.7657    	2867    
184  	214.0441      	46719.3547    	2911    
185  	214.4940      	46621.3467    	2867    
186  	214.9440      	46523.7358    	2832    
187  	215.3941      	46426.5196    	2865    
188  	215.8443      	46329.6990    	2809    
189  	216.2945      	46233.2683    	2796    
190  	216.7447      	46137.2253    	2833    
191  	217.1950      	46041.5708    	2896    
192  	217.6454      	45946.3024    	2936    
193  	218.0958      	45851.4146    	2799    
194  	218.5462      	45756.9051    	2790    
195  	218.9968      	45662.7749    	2844    
196  	219.4473      	45569.0186    	2775    
197  	219.8980      	45475.6338    	2865    
198  	220.3487      	45382.6216    	2818    
199  	220.7994      	45289.9796    	2879    
200  	221.2502      	45197.7027    	2852    
201  	221.7010      	45105.7886    	2839    
202  	222.1519      	45014.2383    	2801    
203  	222.6029      	44923.0466    	2787    
204  	223.0539      	44832.2144    	2855    
205  	223.5050      	44741.7366    	2796    
206  	223.9561      	44651.6141    	2723    
207  	224.4072      	44561.8418    	2864    
208  	224.8585      	44472.4176    	2798    
209  	225.3098      	44383.3427    	2848    
210  	225.7611      	44294.6119    	2794    
211  	226.2125      	44206.2262    	2815    
212  	226.6639      	44118.1807    	2798    
213  	227.1154      	44030.4763    	2804    
214  	227.5670      	43943.1081    	2704    
215  	228.0186      	43856.0772    	2861    
216  	228.4702      	43769.3786    	2826    
217  	228.9220      	43683.0105    	2796    
218  	229.3737      	43596.9739    	2752    
219  	229.8255      	43511.2639    	2850    
220  	230.2774      	43425.8817    	2817    
221  	230.7294      	43340.8224    	2882    
222  	231.1813      	43256.0872    	2847    
223  	231.6334      	43171.6712    	2847    
224  	232.0855      	43087.5756    	2808    
225  	232.5376      	43003.7957    	2877    
226  	232.9898      	42920.3297    	2794    
227  	233.4421      	42837.1787    	2854    
228  	233.8944      	42754.3409    	2841    
229  	234.3468      	42671.8090    	2880    
230  	234.7992      	42589.5895    	2808    
231  	235.2516      	42507.6752    	2782    
232  	235.7042      	42426.0645    	2840    
233  	236.1568      	42344.7555    	2844    
234  	236.6094      	42263.7522    	2802    
235  	237.0621      	42183.0447    	2876    
236  	237.5148      	42102.6366    	2790    
237  	237.9676      	42022.5264    	2817    
238  	238.4205      	41942.7098    	2828    
239  	238.8734      	41863.1851    	2888    
240  	239.3263      	41783.9534    	2821    
241  	239.7793      	41705.0105    	2776    
242  	240.2324      	41626.3573    	2844    
243  	240.6855      	41547.9924    	2848    
244  	241.1387      	41469.9088    	2885    
245  	241.5919      	41392.1130    	2888    
246  	242.0452      	41314.5954    	2877    
247  	242.4986      	41237.3599    	2914    
248  	242.9519      	41160.4049    	2837    
249  	243.4054      	41083.7262    	2848    
250  	243.8589      	41007.3250    	2869    
251  	244.3124      	40931.1972    	2795    
252  	244.7660      	40855.3414    	2797    
253  	245.2197      	40779.7586    	2825    
254  	245.6734      	40704.4448    	2836    
255  	246.1272      	40629.4011    	2816    
256  	246.5810      	40554.6261    	2756    
257  	247.0349      	40480.1133    	2817    
258  	247.4888      	40405.8689    	2911    
259  	247.9428      	40331.8863    	2820    
260  	248.3968      	40258.1643    	2804    
261  	248.8509      	40184.7015    	2770    
262  	249.3051      	40111.5014    	2817    
263  	249.7593      	40038.5552    	2786    
264  	250.2135      	39965.8666    	2888    
265  	250.6678      	39893.4341    	2833    
266  	251.1222      	39821.2540    	2810    
267  	251.5766      	39749.3274    	2829    
268  	252.0311      	39677.6506    	2882    
269  	252.4856      	39606.2222    	2824    
270  	252.9402      	39535.0434    	2819    
271  	253.3948      	39464.1128    	2868    
272  	253.8495      	39393.4268    	2825    
273  	254.3042      	39322.9842    	2824    
274  	254.7590      	39252.7859    	2785    
275  	255.2138      	39182.8309    	2784    
276  	255.6687      	39113.1154    	2829    
277  	256.1237      	39043.6359    	2876    
278  	256.5787      	38974.4005    	2872    
279  	257.0337      	38905.4009    	2848    
280  	257.4889      	38836.6314    	2880    
281  	257.9440      	38768.1047    	2860    
282  	258.3992      	38699.8056    	2834    
283  	258.8545      	38631.7422    	2782    
284  	259.3098      	38563.9087    	2829    
285  	259.7652      	38496.3039    	2877    
286  	260.2206      	38428.9268    	2819    
287  	260.6761      	38361.7806    	2820    
288  	261.1317      	38294.8597    	2770    
289  	261.5872      	38228.1629    	2917    
290  	262.0429      	38161.6892    	2849    
291  	262.4986      	38095.4418    	2859    
292  	262.9544      	38029.4108    	2885    
293  	263.4102      	37963.6083    	2824    
294  	263.8660      	37898.0200    	2860    
295  	264.3220      	37832.6492    	2792    
296  	264.7779      	37767.4991    	2856    
297  	265.2339      	37702.5644    	2794    
298  	265.6900      	37637.8483    	2877    
299  	266.1461      	37573.3410    	2880    
300  	266.6023      	37509.0502    	2822    
301  	267.0586      	37444.9704    	2950    
302  	267.5148      	37381.1050    	2920    
303  	267.9712      	37317.4443    	2824    
304  	268.4276      	37253.9958    	2817    
305  	268.8840      	37190.7542    	2833    
306  	269.3405      	37127.7186    	2852    
307  	269.7971      	37064.8922    	2874    
308  	270.2537      	37002.2696    	2855    
309  	270.7104      	36939.8500    	2782    
310  	271.1671      	36877.6323    	2814    
311  	271.6238      	36815.6197    	2846    
312  	272.0807      	36753.8070    	2874    
313  	272.5375      	36692.1934    	2896    
314  	272.9945      	36630.7778    	2848    
315  	273.4514      	36569.5634    	2834    
316  	273.9085      	36508.5410    	2780    
317  	274.3656      	36447.7219    	2824    
318  	274.8227      	36387.0930    	2796    
319  	275.2799      	36326.6574    	2776    
320  	275.7372      	36266.4183    	2841    
321  	276.1945      	36206.3706    	2892    
322  	276.6518      	36146.5174    	2859    
323  	277.1093      	36086.8498    	2855    
324  	277.5667      	36027.3750    	2870    
325  	278.0242      	35968.0880    	2880    
326  	278.4818      	35908.9918    	2828    
327  	278.9394      	35850.0817    	2838    
328  	279.3971      	35791.3528    	2865    
329  	279.8548      	35732.8161    	2816    
330  	280.3126      	35674.4588    	2878    
331  	280.7704      	35616.2880    	2901    
332  	281.2283      	35558.2988    	2857    
333  	281.6862      	35500.4905    	2914    
334  	282.1443      	35442.8622    	2920    
335  	282.6023      	35385.4168    	2787    
336  	283.0604      	35328.1498    	2825    
337  	283.5186      	35271.0602    	2799    
338  	283.9767      	35214.1510    	2792    
339  	284.4350      	35157.4139    	2840    
340  	284.8933      	35100.8555    	2844    
341  	285.3517      	35044.4751    	2827    
342  	285.8101      	34988.2643    	2800    
343  	286.2686      	34932.2298    	2888    
344  	286.7271      	34876.3671    	2827    
345  	287.1857      	34820.6753    	2875    
346  	287.6443      	34765.1575    	2877    
347  	288.1030      	34709.8090    	2827    
348  	288.5617      	34654.6292    	2833    
349  	289.0205      	34599.6172    	2828    
350  	289.4794      	34544.7760    	2836    
351  	289.9383      	34490.1011    	2866    
352  	290.3972      	34435.5917    	2882    
353  	290.8562      	34381.2472    	2898    
354  	291.3153      	34327.0703    	2878    
355  	291.7744      	34273.0567    	2867    
356  	292.2336      	34219.2057    	2846    
357  	292.6927      	34165.5201    	2876    
358  	293.1520      	34111.9956    	2820    
359  	293.6113      	34058.6314    	2905    
360  	294.0707      	34005.4269    	2858    
361  	294.5302      	33952.3813    	2902    
362  	294.9896      	33899.4974    	2889    
363  	295.4492      	33846.7711    	2930    
364  	295.9087      	33794.2050    	2813    
365  	296.3684      	33741.7915    	2836    
366  	296.8281      	33689.5369    	2869    
367  	297.2878      	33637.4369    	2861    
368  	297.7476      	33585.4944    	2862    
369  	298.2075      	33533.7018    	2856    
370  	298.6674      	33482.0653    	2872    
371  	299.1273      	33430.5841    	2907    
372  	299.5873      	33379.2509    	2882    
373  	300.0474      	33328.0716    	2896    
374  	300.5075      	33277.0422    	2924    
375  	300.9677      	33226.1622    	2924    
376  	301.4279      	33175.4341    	2842    
377  	301.8881      	33124.8541    	2865    
378  	302.3484      	33074.4213    	2856    
379  	302.8088      	33024.1352    	2904    
380  	303.2693      	32973.9985    	2907    
381  	303.7297      	32924.0071    	2897    
382  	304.1903      	32874.1605    	2885    
383  	304.6508      	32824.4614    	2887    
384  	305.1115      	32774.9024    	2858    
385  	305.5722      	32725.4896    	2916    
386  	306.0329      	32676.2223    	2861    
387  	306.4937      	32627.0934    	2822    
388  	306.9546      	32578.1087    	2839    
389  	307.4155      	32529.2645    	2877    
390  	307.8764      	32480.5633    	2824    
391  	308.3375      	32431.9980    	2771    
392  	308.7985      	32383.5746    	2864    
393  	309.2596      	32335.2924    	2852    
394  	309.7208      	32287.1443    	2953    
395  	310.1820      	32239.1363    	2913    
396  	310.6433      	32191.2645    	2835    
397  	311.1046      	32143.5284    	2911    
398  	311.5660      	32095.9305    	2901    
399  	312.0274      	32048.4670    	2855    
400  	312.4889      	32001.1375    	2887    
401  	312.9504      	31953.9445    	2828    
402  	313.4120      	31906.8811    	2808    
403  	313.8737      	31859.9531    	2855    
404  	314.3353      	31813.1598    	2872    
405  	314.7971      	31766.4945    	2836    
406  	315.2589      	31719.9629    	2842    
407  	315.7207      	31673.5613    	2915    
408  	316.1826      	31627.2921    	2864    
409  	316.6446      	31581.1488    	2920    
410  	317.1066      	31535.1370    	2898    
411  	317.5686      	31489.2560    	2848    
412  	318.0308      	31443.4992    	2768    
413  	318.4929      	31397.8722    	2862    
414  	318.9551      	31352.3715    	2848    
415  	319.4174      	31306.9964    	2936    
416  	319.8797      	31261.7495    	2849    
417  	320.3421      	31216.6273    	2912    
418  	320.8045      	31171.6292    	2816    
419  	321.2670      	31126.7577    	2846    
420  	321.7295      	31082.0092    	2920    
421  	322.1921      	31037.3834    	2929    
422  	322.6548      	30992.8797    	2823    
423  	323.1174      	30948.5005    	2860    
424  	323.5802      	30904.2424    	2836    
425  	324.0430      	30860.1049    	2892    
426  	324.5058      	30816.0903    	2834    
427  	324.9687      	30772.1925    	2933    
428  	325.4317      	30728.4167    	2897    
429  	325.8947      	30684.7624    	2848    
430  	326.3577      	30641.2262    	2838    
431  	326.8208      	30597.8077    	2878    
432  	327.2840      	30554.5063    	2873    
433  	327.7472      	30511.3216    	2844    
